    Step 	 temperature 	 pressure 	 Potential Energy 	 Kinetic Energy 	 Sum Energy

       0	 2.18173	-1.54907	        -3415.21	         3273.55	        -141.664
       1	 2.18182	-1.54575	        -3415.35	         3273.67	        -141.677
       2	 2.18201	-1.53563	        -3415.66	         3273.96	        -141.696
       3	 2.18216	-1.51827	        -3415.91	         3274.18	        -141.731
       4	 2.18198	-1.49286	        -3415.69	         3273.91	        -141.784
       5	 2.18103	-1.45811	        -3414.36	          3272.5	         -141.86
       6	 2.17872	-1.41227	        -3410.99	         3269.03	        -141.963
       7	 2.17421	-1.35298	        -3404.37	         3262.27	        -142.099
       8	 2.16644	-1.27727	        -3392.88	         3250.61	         -142.27
       9	 2.15409	-1.18162	        -3374.55	         3232.07	        -142.472
      10	 2.13569	-1.06225	        -3347.16	         3204.48	         -142.68
      11	 2.10991	-0.915954	        -3308.65	         3165.81	        -142.841
      12	 2.07607	-0.741678	        -3257.93	         3115.06	        -142.873
      13	  2.0349	-0.54261	           -3196	         3053.29	        -142.707
      14	   1.989	-0.327696	        -3126.81	         2984.44	        -142.365
      15	 1.94252	-0.110503	        -3056.72	         2914.73	        -141.995
      16	 1.89974	0.0950315	        -2992.31	         2850.56	        -141.754
      17	 1.86362	0.278982	        -2938.05	         2796.37	        -141.673
      18	 1.83545	0.436546	         -2895.8	         2754.12	         -141.68
      19	 1.81541	0.566362	        -2865.77	         2724.06	         -141.71
      20	 1.80319	0.668704	        -2847.48	         2705.73	         -141.75
      21	 1.79825	0.744819	        -2840.13	         2698.32	        -141.808
      22	 1.79983	0.796837	        -2842.57	         2700.69	        -141.876
      23	 1.80704	0.827517	        -2853.47	         2711.51	        -141.954
      24	  1.8188	0.840307	        -2871.24	         2729.15	        -142.088
      25	 1.83352	0.840294	        -2893.52	         2751.23	        -142.288
      26	 1.84914	0.834174	        -2917.12	         2774.66	        -142.461
      27	 1.86387	0.827876	        -2939.28	         2796.75	        -142.534
      28	 1.87679	0.824638	        -2958.68	         2816.13	        -142.544
      29	 1.88766	0.825685	        -2974.99	         2832.44	        -142.554
      30	 1.89638	 0.83175	         -2988.1	         2845.52	        -142.577
      31	 1.90286	 0.84345	        -2997.82	         2855.23	        -142.585
      32	 1.90722	0.860595	        -3004.32	         2861.77	        -142.542
      33	 1.91011	0.881387	        -3008.56	         2866.12	        -142.443
      34	 1.91265	0.902527	        -3012.28	         2869.92	        -142.359
      35	 1.91574	0.921172	        -3016.93	         2874.55	        -142.377
      36	 1.91944	0.937084	        -3022.58	         2880.11	        -142.464
      37	  1.9232	0.951915	        -3028.26	         2885.74	        -142.516
      38	 1.92665	0.966586	        -3033.42	         2890.92	        -142.495
      39	 1.93005	 0.98024	        -3038.47	         2896.01	        -142.455
      40	 1.93378	0.991561	        -3044.08	         2901.62	        -142.467
      41	 1.93784	  1.0005	        -3050.25	         2907.71	        -142.545
      42	 1.94167	 1.00864	        -3056.09	         2913.45	        -142.635
      43	 1.94467	  1.0178	        -3060.61	         2917.96	        -142.651
      44	 1.94693	 1.02786	         -3063.9	         2921.34	        -142.558
      45	 1.94937	 1.03616	        -3067.46	            2925	        -142.465
      46	 1.95278	 1.04041	        -3072.62	         2930.12	        -142.499
      47	 1.95688	  1.0417	        -3078.88	         2936.27	        -142.606
      48	 1.96065	 1.04328	        -3084.62	         2941.92	        -142.701
      49	 1.96303	 1.04815	         -3088.3	         2945.49	        -142.801
      50	 1.96313	 1.05897	        -3088.55	         2945.64	        -142.911
      51	  1.9603	  1.0776	        -3084.33	         2941.39	        -142.933
      52	 1.95503	 1.10273	        -3076.26	         2933.49	        -142.765
      53	 1.94943	 1.12795	        -3067.65	         2925.09	         -142.56
      54	 1.94584	 1.14608	        -3062.23	         2919.71	        -142.527
      55	  1.9453	  1.1543	        -3061.43	          2918.9	        -142.536
      56	 1.94783	 1.15235	        -3065.34	          2922.7	        -142.642
      57	 1.95217	 1.14373	        -3072.07	         2929.19	        -142.872
      58	 1.95606	 1.13526	        -3077.96	         2935.04	         -142.92
      59	 1.95847	 1.12986	        -3081.48	         2938.66	        -142.825
      60	 1.95971	 1.12644	        -3083.26	         2940.51	        -142.754
      61	 1.96025	 1.12369	        -3084.05	         2941.33	        -142.722
      62	 1.96044	 1.12083	        -3084.27	          2941.6	        -142.672
      63	 1.96081	  1.1164	        -3084.73	         2942.16	        -142.572
      64	 1.96236	 1.10763	        -3086.94	         2944.49	        -142.457
      65	 1.96616	 1.09157	         -3092.6	         2950.19	        -142.405
      66	 1.97265	 1.06718	        -3102.38	         2959.91	         -142.47
      67	 1.98112	 1.03675	        -3115.24	         2972.62	        -142.621
      68	 1.99005	  1.0051	         -3128.8	         2986.03	        -142.772
      69	 1.99786	0.977207	         -3140.6	         2997.74	        -142.864
      70	 2.00348	0.956418	        -3149.06	         3006.17	        -142.891
      71	  2.0065	0.944095	        -3153.58	          3010.7	        -142.888
      72	 2.00691	0.940359	        -3154.19	         3011.31	        -142.881
      73	 2.00487	0.944785	        -3151.11	         3008.25	         -142.86
      74	 2.00073	0.956264	        -3144.86	         3002.04	         -142.82
      75	   1.995	0.973097	        -3136.26	         2993.44	        -142.813
      76	 1.98794	0.994181	        -3125.72	         2982.86	        -142.861
      77	 1.97951	 1.01947	        -3113.09	         2970.21	        -142.887
      78	 1.96994	 1.04802	        -3098.65	         2955.85	        -142.795
      79	 1.96046	 1.07588	        -3084.28	         2941.64	        -142.635
      80	 1.95282	 1.09758	        -3072.73	         2930.18	        -142.551
      81	 1.94812	 1.10961	        -3065.67	         2923.12	        -142.549
      82	 1.94666	 1.11099	        -3063.49	         2920.94	        -142.545
      83	 1.94855	 1.10133	        -3066.31	         2923.78	        -142.529
      84	  1.9539	 1.08036	        -3074.29	         2931.79	        -142.499
      85	 1.96285	 1.04784	        -3087.67	         2945.22	        -142.459
      86	 1.97538	 1.00407	        -3106.53	         2964.01	        -142.513
      87	  1.9905	0.952254	        -3129.39	          2986.7	        -142.688
      88	 2.00619	0.898887	        -3153.08	         3010.23	        -142.848
      89	 2.02041	0.850361	        -3174.49	         3031.56	         -142.93
      90	 2.03177	0.810993	        -3191.59	          3048.6	        -142.989
      91	 2.03929	0.783892	        -3202.94	         3059.89	        -143.054
      92	 2.04221	0.771504	        -3207.33	         3064.26	        -143.075
      93	 2.04041	0.774274	        -3204.53	         3061.56	        -142.966
      94	 2.03514	0.788618	        -3196.37	         3053.66	        -142.711
      95	 2.02885	0.807135	        -3186.72	         3044.23	        -142.488
      96	 2.02362	0.823418	        -3178.85	         3036.38	        -142.464
      97	 2.01987	0.836161	        -3173.29	         3030.76	        -142.532
      98	 2.01702	0.846937	        -3169.04	         3026.47	        -142.571
      99	 2.01462	0.856819	        -3165.42	         3022.88	        -142.546
     100	 2.01284	 0.86525	        -3162.68	         3020.21	        -142.472
     101	 2.01222	0.870527	        -3161.72	         3019.28	        -142.432
     102	 2.01298	0.871985	        -3162.91	         3020.42	         -142.49
     103	 2.01449	0.871532	        -3165.29	         3022.68	        -142.608
     104	 2.01553	 0.87276	        -3166.97	         3024.24	        -142.725
     105	  2.0149	0.879204	        -3166.11	          3023.3	         -142.81
     106	 2.01177	0.893254	        -3161.44	          3018.6	        -142.843
     107	 2.00589	  0.9155	        -3152.59	         3009.78	        -142.809
     108	 1.99777	0.944338	        -3140.31	          2997.6	        -142.712
     109	 1.98856	0.976149	        -3126.36	         2983.79	        -142.569
     110	 1.97994	 1.00587	        -3113.25	         2970.85	        -142.399
     111	 1.97376	 1.02787	        -3103.84	         2961.58	        -142.261
     112	 1.97148	 1.03775	        -3100.39	         2958.16	        -142.225
     113	 1.97356	 1.03419	        -3103.58	         2961.28	        -142.298
     114	  1.9793	 1.01935	        -3112.35	          2969.9	        -142.447
     115	 1.98717	0.997938	        -3124.33	         2981.71	        -142.624
     116	 1.99532	0.975653	        -3136.69	         2993.93	        -142.766
     117	 2.00216	  0.9574	        -3147.04	         3004.19	        -142.849
     118	 2.00671	 0.94635	        -3153.89	            3011	        -142.881
     119	  2.0085	0.943998	        -3156.57	         3013.69	         -142.88
     120	  2.0075	0.950553	        -3155.05	          3012.2	         -142.86
     121	 2.00394	0.965345	        -3149.68	         3006.85	        -142.834
     122	 1.99816	0.987188	           -3141	         2998.19	        -142.803
     123	 1.99069	 1.01441	        -3129.73	         2986.98	        -142.751
     124	 1.98226	 1.04455	           -3117	         2974.33	         -142.67
     125	 1.97389	 1.07428	        -3104.36	         2961.79	        -142.572
     126	 1.96679	 1.09982	        -3093.61	         2951.13	        -142.477
     127	 1.96207	 1.11763	        -3086.45	         2944.05	        -142.409
     128	  1.9605	 1.12523	         -3084.1	          2941.7	        -142.402
     129	 1.96219	 1.12219	        -3086.71	         2944.22	        -142.487
     130	 1.96632	 1.11084	        -3093.05	         2950.42	        -142.627
     131	 1.97156	  1.0952	        -3101.02	         2958.29	        -142.725
     132	 1.97691	 1.07843	        -3109.03	         2966.31	        -142.718
     133	 1.98221	 1.06115	        -3116.89	         2974.26	        -142.636
     134	 1.98793	  1.0422	        -3125.42	         2982.85	        -142.573
     135	 1.99437	 1.02099	        -3135.11	          2992.5	        -142.605
     136	   2.001	0.999344	        -3145.15	         3002.44	        -142.708
     137	 2.00668	0.980922	        -3153.76	         3010.97	        -142.797
     138	 2.01041	0.968914	        -3159.37	         3016.55	        -142.816
     139	  2.0118	0.964553	        -3161.43	         3018.64	        -142.789
     140	 2.01096	0.967595	        -3160.15	         3017.38	        -142.772
     141	 2.00801	0.977688	        -3155.74	         3012.96	        -142.785
     142	 2.00293	0.994876	        -3148.14	         3005.34	        -142.802
     143	 1.99573	   1.019	        -3137.33	         2994.54	        -142.791
     144	 1.98678	 1.04882	        -3123.85	         2981.12	        -142.725
     145	 1.97701	  1.0814	        -3109.07	         2966.46	        -142.614
     146	 1.96776	 1.11251	        -3095.09	         2952.58	        -142.509
     147	 1.96034	 1.13805	        -3083.91	         2941.46	        -142.445
     148	 1.95576	 1.15507	        -3076.98	         2934.58	        -142.395
     149	 1.95472	 1.16146	        -3075.39	         2933.02	        -142.365
     150	 1.95745	 1.15646	        -3079.59	         2937.13	         -142.46
     151	 1.96297	 1.14302	         -3088.1	         2945.41	         -142.69
     152	  1.9691	 1.12775	         -3097.5	          2954.6	        -142.898
     153	 1.97375	  1.1169	        -3104.55	         2961.57	        -142.974
     154	 1.97599	 1.11323	        -3107.87	         2964.93	        -142.938
     155	 1.97601	 1.11615	        -3107.82	         2964.96	        -142.865
     156	 1.97449	 1.12361	        -3105.48	         2962.67	        -142.809
     157	  1.9721	  1.1335	        -3101.88	          2959.1	        -142.783
     158	 1.96934	 1.14421	        -3097.74	         2954.95	        -142.781
     159	 1.96653	 1.15454	        -3093.53	         2950.74	        -142.785
     160	 1.96403	 1.16329	        -3089.73	         2946.99	        -142.737
     161	 1.96272	 1.16788	        -3087.61	         2945.02	        -142.584
     162	 1.96411	  1.1637	        -3089.58	         2947.11	        -142.475
     163	 1.96897	 1.14825	        -3097.04	          2954.4	        -142.639
     164	 1.97574	 1.12631	        -3107.48	         2964.55	        -142.927
     165	 1.98171	 1.10621	        -3116.55	         2973.52	        -143.033
     166	 1.98552	 1.09214	        -3122.16	         2979.23	        -142.929
     167	 1.98766	 1.08276	        -3125.21	         2982.44	        -142.778
     168	 1.98919	 1.07506	        -3127.46	         2984.73	        -142.722
     169	 1.99055	 1.06802	        -3129.52	         2986.76	        -142.754
     170	 1.99146	 1.06264	         -3130.9	         2988.14	        -142.768
     171	 1.99173	 1.05958	        -3131.28	         2988.54	         -142.74
     172	  1.9914	 1.05859	         -3130.8	         2988.04	        -142.756
     173	 1.99018	 1.06038	        -3129.05	         2986.22	        -142.833
     174	 1.98738	 1.06692	        -3124.91	         2982.02	        -142.888
     175	 1.98253	 1.07941	         -3117.6	         2974.73	        -142.868
     176	 1.97587	 1.09682	        -3107.55	         2964.76	        -142.793
     177	  1.9683	 1.11629	         -3096.1	          2953.4	        -142.709
     178	 1.96092	 1.13436	        -3084.94	         2942.32	        -142.613
     179	 1.95505	 1.14708	        -3075.99	         2933.53	        -142.467
     180	 1.95238	  1.1495	        -3071.82	         2929.52	          -142.3
     181	 1.95456	 1.13677	           -3075	         2932.78	         -142.22
     182	 1.96223	 1.10709	         -3086.6	         2944.29	        -142.312
     183	 1.97433	 1.06387	        -3104.98	         2962.44	        -142.544
     184	 1.98839	 1.01468	        -3126.33	         2983.53	        -142.797
     185	 2.00164	0.967993	         -3146.4	         3003.41	        -142.987
     186	 2.01195	0.930398	        -3161.94	         3018.87	        -143.067
     187	 2.01843	0.904897	        -3171.58	         3028.59	        -142.993
     188	 2.02167	0.890013	        -3176.29	         3033.45	        -142.838
     189	 2.02294	0.882049	        -3178.15	         3035.36	        -142.782
     190	 2.02279	0.879586	        -3177.95	         3035.12	        -142.825
     191	 2.02086	0.883743	        -3175.08	         3032.23	        -142.856
     192	 2.01682	0.895415	        -3169.01	         3026.17	        -142.843
     193	 2.01079	0.914106	        -3159.92	         3017.13	        -142.795
     194	  2.0033	0.938034	        -3148.64	          3005.9	        -142.743
     195	 1.99503	0.964946	         -3136.2	         2993.49	        -142.715
     196	 1.98658	0.992806	        -3123.48	         2980.81	         -142.67
     197	  1.9788	 1.01894	        -3111.69	         2969.14	        -142.554
     198	 1.97303	 1.03907	        -3102.92	         2960.49	        -142.432
     199	 1.97048	  1.0493	         -3099.1	         2956.67	        -142.431
     200	 1.97127	  1.0492	        -3100.38	         2957.85	        -142.532
     201	  1.9745	 1.04148	         -3105.3	         2962.69	        -142.611
     202	 1.97927	 1.02893	        -3112.47	         2969.85	        -142.623
     203	 1.98515	 1.01305	        -3121.29	         2978.67	        -142.627
     204	 1.99174	0.995255	        -3131.26	         2988.56	        -142.702
     205	 1.99808	0.978777	        -3140.92	         2998.06	        -142.859
     206	  2.0025	0.968743	        -3147.72	         3004.69	        -143.025
     207	 2.00338	0.970132	        -3149.12	         3006.01	        -143.106
     208	 1.99997	0.985153	        -3143.97	         3000.91	        -143.061
     209	 1.99282	 1.01211	         -3133.1	         2990.17	        -142.927
     210	 1.98344	 1.04631	        -3118.85	          2976.1	        -142.741
     211	 1.97399	 1.08124	        -3104.46	         2961.94	        -142.517
     212	 1.96686	  1.1096	        -3093.61	         2951.24	        -142.368
     213	 1.96357	 1.12647	        -3088.73	          2946.3	        -142.431
     214	 1.96373	 1.13276	         -3089.2	         2946.55	        -142.651
     215	 1.96553	 1.13379	        -3092.08	         2949.23	        -142.843
     216	 1.96722	 1.13458	        -3094.68	         2951.78	        -142.902
     217	 1.96822	 1.13681	        -3096.13	         2953.27	        -142.855
     218	 1.96889	 1.13942	        -3097.07	         2954.28	         -142.79
     219	 1.96983	 1.14073	        -3098.46	         2955.69	        -142.765
     220	 1.97126	  1.1402	        -3100.63	         2957.83	        -142.798
     221	  1.9728	 1.13896	        -3103.02	         2960.15	        -142.875
     222	 1.97371	 1.13932	        -3104.43	         2961.52	        -142.912
     223	 1.97364	 1.14245	        -3104.24	         2961.41	        -142.837
     224	 1.97309	 1.14684	        -3103.32	         2960.57	        -142.741
     225	 1.97274	 1.15035	        -3102.81	         2960.06	        -142.751
     226	 1.97247	 1.15337	        -3102.51	         2959.65	        -142.854
     227	 1.97137	 1.15858	        -3100.95	            2958	        -142.952
     228	 1.96856	 1.16839	        -3096.78	         2953.79	        -142.987
     229	 1.96389	 1.18314	        -3089.69	         2946.78	        -142.915
     230	 1.95833	 1.19987	        -3081.15	         2938.44	        -142.712
     231	 1.95401	 1.21219	        -3074.46	         2931.96	        -142.498
     232	 1.95303	 1.21372	        -3072.94	         2930.49	        -142.451
     233	 1.95599	 1.20273	         -3077.5	         2934.93	        -142.569
     234	 1.96189	 1.18236	        -3086.48	         2943.77	        -142.704
     235	 1.96926	 1.15703	        -3097.62	         2954.83	        -142.793
     236	 1.97685	 1.13049	        -3109.09	         2966.22	        -142.861
     237	 1.98366	 1.10595	        -3119.32	         2976.43	        -142.893
     238	 1.98905	 1.08544	        -3127.38	         2984.52	        -142.865
     239	 1.99297	 1.06923	        -3133.22	          2990.4	         -142.82
     240	 1.99565	 1.05677	        -3137.22	         2994.41	        -142.807
     241	 1.99715	 1.04786	         -3139.5	         2996.67	        -142.823
     242	 1.99744	 1.04266	        -3139.93	         2997.11	        -142.818
     243	 1.99679	 1.04045	        -3138.85	         2996.12	        -142.722
     244	 1.99627	 1.03804	        -3137.89	         2995.36	        -142.537
     245	 1.99764	 1.03026	        -3139.81	         2997.41	        -142.404
     246	 2.00197	 1.01381	        -3146.37	         3003.91	        -142.464
     247	 2.00866	0.990595	        -3156.57	         3013.93	        -142.641
     248	 2.01591	0.966032	         -3167.6	         3024.81	         -142.79
     249	 2.02207	0.945139	         -3176.9	         3034.05	        -142.855
     250	 2.02625	0.930669	        -3183.16	         3040.32	        -142.838
     251	 2.02845	0.922862	        -3186.38	         3043.63	        -142.756
     252	 2.02934	0.919975	        -3187.62	         3044.96	        -142.663
     253	 2.02972	0.919773	        -3188.16	         3045.53	        -142.629
     254	 2.02993	0.921345	        -3188.51	         3045.84	        -142.669
     255	  2.0297	0.925524	        -3188.22	         3045.49	        -142.726
     256	 2.02863	0.933476	        -3186.63	          3043.9	        -142.732
     257	 2.02674	0.945063	        -3183.75	         3041.06	        -142.695
     258	 2.02434	0.959078	        -3180.16	         3037.46	        -142.697
     259	  2.0215	0.975131	        -3175.94	         3033.19	        -142.742
     260	   2.018	0.993688	        -3170.68	         3027.95	        -142.731
     261	 2.01415	 1.01372	         -3164.8	         3022.18	        -142.622
     262	 2.01099	 1.03189	        -3159.95	         3017.43	        -142.524
     263	 2.00941	  1.0453	        -3157.62	         3015.05	        -142.565
     264	 2.00911	 1.05472	        -3157.33	          3014.6	        -142.722
     265	 2.00873	 1.06412	        -3156.92	         3014.04	        -142.874
     266	 2.00688	 1.07751	        -3154.21	         3011.27	        -142.937
     267	 2.00295	 1.09651	        -3148.29	         3005.38	        -142.911
     268	 1.99721	 1.12009	        -3139.61	         2996.76	        -142.849
     269	 1.99044	 1.14575	        -3129.38	         2986.61	        -142.774
     270	 1.98367	 1.17029	        -3119.13	         2976.45	        -142.676
     271	 1.97813	 1.18991	        -3110.72	         2968.15	         -142.57
     272	 1.97505	 1.20088	        -3106.03	         2963.52	        -142.511
     273	 1.97509	 1.20111	        -3106.12	         2963.58	        -142.544
     274	 1.97797	 1.19147	        -3110.57	          2967.9	        -142.675
     275	 1.98243	 1.17578	        -3117.41	         2974.59	         -142.82
     276	 1.98707	 1.15851	         -3124.4	         2981.55	        -142.852
     277	 1.99135	 1.14146	        -3130.74	         2987.97	         -142.77
     278	 1.99573	 1.12362	        -3137.21	         2994.54	        -142.679
     279	 2.00074	 1.10366	        -3144.74	         3002.06	        -142.683
     280	 2.00611	 1.08272	        -3152.93	         3010.11	        -142.824
     281	 2.01039	 1.06532	        -3159.56	         3016.53	        -143.033
     282	 2.01161	 1.05745	        -3161.54	         3018.36	        -143.176
     283	 2.00855	 1.06288	        -3156.91	         3013.78	        -143.137
     284	 2.00172	 1.08016	        -3146.46	         3003.53	        -142.924
     285	  1.9932	 1.10304	        -3133.45	         2990.75	        -142.696
     286	 1.98522	 1.12474	         -3121.4	         2978.78	        -142.618
     287	 1.97878	 1.14215	        -3111.79	         2969.12	        -142.678
     288	 1.97363	 1.15583	        -3104.15	         2961.39	        -142.761
     289	 1.96922	 1.16718	        -3097.57	         2954.78	         -142.79
     290	 1.96545	 1.17623	        -3091.86	         2949.12	        -142.749
     291	 1.96288	 1.18119	        -3087.91	         2945.26	         -142.65
     292	 1.96259	 1.17886	        -3087.36	         2944.83	        -142.532
     293	 1.96571	 1.16596	           -3092	         2949.51	        -142.489
     294	 1.97251	 1.14178	        -3102.32	         2959.72	        -142.604
     295	 1.98178	 1.11015	        -3116.43	         2973.62	        -142.815
     296	 1.99136	 1.07778	        -3130.96	         2987.98	        -142.981
     297	 1.99934	 1.05047	        -3143.01	         2999.96	        -143.044
     298	 2.00481	 1.03123	        -3151.18	         3008.15	        -143.025
     299	  2.0077	 1.02037	        -3155.45	          3012.5	        -142.952
     300	 2.00862	 1.01632	        -3156.75	         3013.87	        -142.875
     301	 2.00822	 1.01704	        -3156.12	         3013.28	        -142.844
     302	 2.00692	 1.02131	        -3154.14	         3011.33	        -142.814
     303	 2.00512	 1.02784	        -3151.34	         3008.62	        -142.724
     304	  2.0036	 1.03402	        -3148.99	         3006.34	        -142.645
     305	   2.003	 1.03765	        -3148.12	         3005.45	        -142.669
     306	 2.00322	 1.03888	        -3148.49	         3005.78	        -142.714
     307	 2.00403	 1.03841	        -3149.64	         3006.98	        -142.652
     308	 2.00584	 1.03478	        -3152.28	          3009.7	        -142.571
     309	 2.00909	 1.02657	        -3157.18	         3014.58	        -142.598
     310	 2.01328	 1.01536	        -3163.55	         3020.87	        -142.686
     311	 2.01723	 1.00471	        -3169.57	          3026.8	         -142.77
     312	  2.0198	0.998072	        -3173.46	         3030.64	        -142.817
     313	 2.02025	0.997665	        -3174.14	         3031.33	        -142.819
     314	 2.01843	 1.00405	        -3171.38	          3028.6	        -142.786
     315	 2.01466	 1.01633	        -3165.68	         3022.94	        -142.738
     316	 2.00957	 1.03267	        -3157.98	         3015.31	        -142.676
     317	 2.00415	 1.05036	        -3149.71	         3007.17	        -142.546
     318	 2.00002	 1.06481	        -3143.32	         3000.98	        -142.346
     319	 1.99893	  1.0707	        -3141.72	         2999.35	        -142.378
     320	 2.00049	 1.06913	        -3144.38	         3001.68	        -142.699
     321	 2.00195	 1.06857	        -3146.78	         3003.88	        -142.904
     322	 2.00115	 1.07532	        -3145.56	         3002.66	        -142.896
     323	 1.99776	    1.09	        -3140.37	         2997.58	        -142.793
     324	 1.99266	 1.10992	        -3132.59	         2989.93	        -142.658
     325	  1.9872	 1.13097	        -3124.27	         2981.75	        -142.522
     326	  1.9828	 1.14883	        -3117.59	         2975.14	        -142.442
     327	 1.98032	  1.1607	        -3113.91	         2971.42	        -142.487
     328	 1.97955	 1.16698	         -3112.9	         2970.26	        -142.636
     329	 1.97948	 1.17064	         -3112.9	         2970.16	        -142.732
     330	 1.97959	 1.17329	           -3113	         2970.33	        -142.671
     331	 1.98041	 1.17314	         -3114.2	         2971.55	        -142.643
     332	  1.9821	  1.1695	        -3116.86	         2974.09	        -142.768
     333	 1.98374	 1.16536	        -3119.39	         2976.56	         -142.83
     334	 1.98478	 1.16244	        -3120.85	         2978.11	        -142.739
     335	 1.98594	 1.15856	        -3122.44	         2979.85	        -142.586
     336	 1.98861	  1.1498	        -3126.35	         2983.87	        -142.487
     337	 1.99364	 1.13382	        -3133.97	         2991.41	        -142.555
     338	 2.00029	 1.11296	        -3144.18	         3001.38	        -142.798
     339	 2.00626	 1.09424	        -3153.39	         3010.34	        -143.049
     340	 2.00914	 1.08501	        -3157.82	         3014.65	        -143.165
     341	 2.00767	 1.08896	         -3155.6	         3012.45	        -143.147
     342	 2.00196	 1.10567	        -3146.96	         3003.89	        -143.067
     343	 1.99301	 1.13218	         -3133.4	         2990.46	        -142.945
     344	 1.98246	  1.1636	        -3117.38	         2974.63	         -142.75
     345	 1.97259	 1.19298	         -3102.4	         2959.84	        -142.566
     346	 1.96543	 1.21402	        -3091.64	         2949.09	         -142.55
     347	  1.9616	 1.22479	        -3085.92	         2943.34	        -142.577
     348	 1.96122	 1.22501	        -3085.23	         2942.77	        -142.454
     349	 1.96519	 1.21183	        -3091.06	         2948.73	        -142.333
     350	 1.97413	 1.18321	        -3104.58	         2962.15	        -142.431
     351	 1.98682	 1.14298	        -3123.86	         2981.18	        -142.677
     352	 2.00069	 1.09908	        -3144.83	         3001.98	        -142.856
     353	 2.01356	 1.05814	        -3164.19	         3021.29	        -142.905
     354	 2.02436	 1.02355	        -3180.42	         3037.48	        -142.931
     355	 2.03238	0.997642	        -3192.51	         3049.52	        -142.986
     356	 2.03693	0.982856	        -3199.34	         3056.33	        -143.009
     357	 2.03763	0.980397	        -3200.37	         3057.39	        -142.983
     358	 2.03466	0.989719	         -3195.9	         3052.93	        -142.964
     359	 2.02834	 1.00968	        -3186.42	         3043.45	        -142.968
     360	 2.01912	 1.03883	        -3172.52	         3029.62	        -142.899
     361	 2.00843	 1.07296	        -3156.22	          3013.6	        -142.621
     362	 1.99936	 1.10278	        -3142.31	         2999.99	        -142.324
     363	 1.99464	 1.11963	         -3135.3	         2992.91	        -142.394
     364	 1.99397	 1.12446	        -3134.53	          2991.9	        -142.631
     365	 1.99517	 1.12365	        -3136.48	         2993.71	        -142.769
     366	 1.99659	 1.12181	        -3138.64	         2995.83	        -142.812
     367	 1.99755	 1.12083	        -3140.07	         2997.27	        -142.797
     368	 1.99806	 1.12076	         -3140.8	         2998.04	         -142.76
     369	 1.99843	 1.12076	        -3141.33	         2998.59	        -142.734
     370	 1.99895	 1.12008	         -3142.1	         2999.36	        -142.737
     371	 1.99967	 1.11865	        -3143.21	         3000.45	        -142.753
     372	 2.00055	 1.11674	        -3144.53	         3001.77	         -142.76
     373	 2.00149	 1.11463	        -3145.97	         3003.18	        -142.795
     374	 2.00212	 1.11341	        -3146.99	         3004.12	        -142.866
     375	  2.0018	 1.11505	        -3146.55	         3003.65	        -142.898
     376	 2.00022	 1.12052	        -3144.15	         3001.28	        -142.869
     377	 1.99756	 1.12916	        -3140.13	         2997.29	        -142.838
     378	 1.99414	 1.14001	        -3134.99	         2992.16	        -142.836
     379	 1.99013	 1.15249	        -3128.97	         2986.15	        -142.824
     380	 1.98586	 1.16559	        -3122.51	         2979.74	        -142.768
     381	 1.98196	 1.17726	         -3116.6	         2973.89	        -142.711
     382	 1.97907	 1.18541	        -3112.24	         2969.55	        -142.695
     383	 1.97749	 1.18903	        -3109.87	         2967.18	         -142.69
     384	 1.97736	  1.1876	        -3109.65	         2966.98	        -142.667
     385	 1.97889	 1.18034	        -3111.91	         2969.28	        -142.626
     386	 1.98249	 1.16613	        -3117.24	         2974.69	        -142.553
     387	 1.98874	 1.14336	        -3126.54	         2984.05	        -142.491
     388	 1.99787	 1.11132	         -3140.3	         2997.75	        -142.552
     389	 2.00903	 1.07285	         -3157.2	          3014.5	        -142.707
     390	 2.02048	 1.03352	         -3174.5	         3031.67	        -142.828
     391	 2.03064	0.998306	        -3189.78	          3046.9	        -142.879
     392	 2.03856	0.970231	        -3201.68	         3058.79	        -142.894
     393	 2.04381	0.950873	        -3209.56	         3066.66	        -142.897
     394	 2.04622	0.940874	        -3213.16	         3070.28	        -142.881
     395	 2.04596	 0.93977	        -3212.73	         3069.89	        -142.834
     396	 2.04364	0.945743	        -3209.16	          3066.4	        -142.755
     397	 2.04023	0.955769	        -3203.96	         3061.28	        -142.672
     398	 2.03671	0.966683	        -3198.69	         3056.01	        -142.673
     399	  2.0333	 0.97761	        -3193.69	         3050.89	        -142.793
     400	 2.02925	0.990636	         -3187.7	         3044.82	        -142.875
     401	 2.02408	 1.00711	        -3179.88	         3037.07	        -142.806
     402	 2.01846	 1.02484	         -3171.3	         3028.63	         -142.67
     403	 2.01366	 1.03983	        -3164.01	         3021.43	        -142.578
     404	 2.01064	 1.04925	        -3159.46	         3016.91	         -142.55
     405	 2.00972	 1.05217	        -3158.08	         3015.52	         -142.56
     406	  2.0107	 1.04916	        -3159.59	         3016.99	        -142.603
     407	 2.01298	 1.04199	         -3163.1	         3020.42	        -142.683
     408	 2.01564	 1.03351	        -3167.16	          3024.4	        -142.761
     409	 2.01778	 1.02646	         -3170.4	         3027.62	        -142.781
     410	 2.01909	 1.02197	         -3172.3	         3029.59	        -142.718
     411	 2.02003	 1.01888	        -3173.61	            3031	        -142.614
     412	 2.02138	 1.01502	        -3175.61	         3033.02	        -142.591
     413	 2.02317	 1.01029	        -3178.44	         3035.71	        -142.735
     414	 2.02409	 1.00873	        -3180.03	         3037.09	        -142.947
     415	 2.02229	 1.01582	        -3177.45	         3034.39	        -143.065
     416	 2.01677	 1.03439	        -3169.15	          3026.1	        -143.044
     417	 2.00793	 1.06302	        -3155.77	         3012.85	         -142.92
     418	 1.99739	 1.09683	        -3139.74	         2997.03	        -142.718
     419	 1.98761	 1.12845	        -3124.82	         2982.36	        -142.456
     420	 1.98158	 1.14914	        -3115.53	         2973.32	        -142.211
     421	 1.98176	 1.15159	        -3115.77	         2973.59	        -142.189
     422	 1.98819	 1.13555	        -3125.76	         2983.22	        -142.535
     423	 1.99753	 1.11098	        -3140.27	         2997.24	        -143.024
     424	 2.00503	 1.09211	        -3151.81	         3008.49	        -143.322
     425	 2.00747	 1.08833	        -3155.49	         3012.15	        -143.343
     426	 2.00434	 1.10102	        -3150.63	         3007.45	        -143.178
     427	 1.99721	 1.12545	         -3139.7	         2996.76	        -142.938
     428	 1.98858	 1.15414	        -3126.56	         2983.81	        -142.747
     429	 1.98063	 1.18045	        -3114.53	         2971.88	         -142.65
     430	 1.97476	 1.20017	        -3105.65	         2963.09	        -142.561
     431	 1.97192	 1.21031	        -3101.35	         2958.82	        -142.533
     432	 1.97224	 1.21025	        -3101.93	         2959.31	         -142.62
     433	 1.97483	 1.20278	        -3105.91	         2963.19	        -142.727
     434	 1.97846	 1.19163	        -3111.41	         2968.63	        -142.781
     435	 1.98231	 1.17933	        -3117.21	         2974.41	        -142.793
     436	 1.98598	 1.16723	        -3122.72	         2979.92	        -142.802
     437	 1.98918	 1.15634	        -3127.54	         2984.72	        -142.821
     438	 1.99161	 1.14764	        -3131.21	         2988.36	        -142.845
     439	 1.99298	   1.142	        -3133.29	         2990.42	        -142.865
     440	 1.99309	 1.13995	        -3133.44	         2990.58	        -142.865
     441	 1.99196	 1.14123	        -3131.71	         2988.89	        -142.813
     442	 1.99017	 1.14407	        -3128.87	          2986.2	         -142.68
     443	 1.98898	 1.14456	         -3126.9	         2984.42	        -142.483
     444	 1.99018	 1.13737	        -3128.52	         2986.21	        -142.315
     445	 1.99514	 1.11829	        -3135.94	         2993.66	        -142.283
     446	   2.004	 1.08703	        -3149.35	         3006.95	        -142.395
     447	 2.01553	 1.04741	        -3166.81	         3024.25	         -142.56
     448	 2.02793	 1.00499	        -3185.53	         3042.84	        -142.695
     449	 2.03956	0.964805	        -3203.08	         3060.28	        -142.793
     450	 2.04916	0.930844	        -3217.56	         3074.69	        -142.868
     451	 2.05583	 0.90609	         -3227.6	         3084.69	        -142.905
     452	 2.05912	0.892092	        -3232.52	         3089.62	        -142.892
     453	 2.05914	0.888636	         -3232.5	         3089.65	        -142.843
     454	 2.05645	0.894105	         -3228.4	         3085.62	        -142.783
     455	 2.05185	0.906083	        -3221.43	         3078.72	        -142.714
     456	 2.04636	0.921536	         -3213.1	         3070.48	        -142.618
     457	 2.04122	0.936679	         -3205.3	         3062.78	        -142.522
     458	 2.03753	0.948115	        -3199.76	         3057.24	        -142.522
     459	 2.03543	0.955285	        -3196.71	         3054.09	        -142.624
     460	 2.03407	0.960682	        -3194.79	         3052.05	        -142.737
     461	 2.03235	0.967517	        -3192.27	         3049.48	        -142.795
     462	 2.02962	 0.97776	        -3188.16	         3045.37	        -142.789
     463	 2.02578	0.991642	        -3182.37	         3039.62	        -142.756
     464	 2.02109	 1.00845	        -3175.32	         3032.58	        -142.738
     465	 2.01577	 1.02752	        -3167.34	          3024.6	        -142.742
     466	 2.00991	 1.04851	        -3158.56	         3015.81	        -142.751
     467	 2.00362	 1.07097	        -3149.12	         3006.37	        -142.756
     468	 1.99705	 1.09422	        -3139.28	         2996.52	        -142.765
     469	 1.99036	 1.11754	        -3129.28	         2986.49	        -142.791
     470	 1.98363	 1.14044	        -3119.21	          2976.4	        -142.813
     471	 1.97708	 1.16213	        -3109.35	         2966.57	        -142.773
     472	 1.97145	 1.18034	         -3100.8	         2958.13	        -142.676
     473	 1.96779	 1.19175	        -3095.28	         2952.64	        -142.641
     474	 1.96655	 1.19504	        -3093.45	         2950.77	         -142.68
     475	 1.96745	 1.19116	         -3094.8	         2952.12	        -142.681
     476	 1.97026	 1.18083	           -3099	         2956.34	        -142.661
     477	 1.97485	 1.16452	         -3105.9	         2963.22	        -142.685
     478	 1.98076	 1.14375	        -3114.82	         2972.08	         -142.74
     479	 1.98727	 1.12087	        -3124.65	         2981.85	        -142.806
     480	 1.99351	 1.09853	        -3134.11	         2991.22	        -142.889
     481	 1.99854	 1.07975	        -3141.71	         2998.75	         -142.96
     482	 2.00161	 1.06689	         -3146.3	         3003.35	        -142.942
     483	 2.00279	 1.05997	        -3147.97	         3005.13	        -142.836
     484	 2.00282	 1.05684	        -3147.94	         3005.18	        -142.765
     485	 2.00216	 1.05619	        -3146.96	         3004.18	        -142.782
     486	  2.0005	 1.05889	        -3144.53	          3001.7	        -142.831
     487	 1.99728	 1.06658	        -3139.73	         2996.87	        -142.857
     488	 1.99222	 1.07996	         -3132.1	         2989.27	        -142.825
     489	 1.98568	 1.09777	        -3122.22	         2979.47	        -142.746
     490	 1.97856	 1.11724	        -3111.46	         2968.78	        -142.683
     491	 1.97169	 1.13564	        -3101.17	         2958.49	        -142.679
     492	 1.96554	 1.15152	        -3091.95	         2949.25	        -142.698
     493	 1.96041	 1.16383	        -3084.23	         2941.57	        -142.662
     494	 1.95706	 1.17028	        -3079.12	         2936.53	        -142.588
     495	 1.95637	 1.16793	        -3078.11	          2935.5	        -142.609
     496	 1.95845	 1.15636	        -3081.34	         2938.62	        -142.718
     497	 1.96277	 1.13737	        -3087.81	          2945.1	        -142.702
     498	 1.96964	 1.11025	        -3097.95	         2955.41	        -142.541
     499	 1.98009	 1.07188	        -3113.64	         2971.07	        -142.562
     500	 1.99345	 1.02436	        -3133.98	         2991.12	        -142.858
     501	  2.0068	0.977007	        -3154.27	         3011.14	        -143.133
     502	 2.01723	0.938868	        -3169.94	         3026.79	        -143.153
     503	 2.02403	0.912414	        -3179.97	         3036.99	         -142.98
     504	 2.02819	0.894906	         -3186.1	         3043.23	        -142.873
     505	 2.03037	0.884632	        -3189.41	          3046.5	        -142.916
     506	 2.03011	0.883209	        -3189.11	         3046.11	        -142.998
     507	  2.0266	0.893049	         -3183.9	         3040.85	        -143.048
     508	 2.01946	0.915144	        -3173.15	         3030.14	        -143.015
     509	 2.00933	0.947538	        -3157.79	         3014.93	         -142.86
     510	 1.99799	 0.98472	        -3140.61	         2997.93	        -142.676
     511	 1.98748	 1.02037	         -3124.8	         2982.16	        -142.642
     512	 1.97849	 1.05202	        -3111.48	         2968.68	        -142.797
     513	 1.97011	 1.08208	        -3099.11	         2956.11	        -142.994
     514	 1.96108	 1.11399	        -3085.57	         2942.56	        -143.008
     515	  1.9517	 1.14652	        -3071.27	          2928.5	        -142.779
     516	 1.94423	 1.17258	        -3059.81	         2917.29	        -142.525
     517	 1.94107	 1.18477	        -3054.98	         2912.55	        -142.432
     518	 1.94311	 1.18041	        -3058.13	         2915.62	        -142.508
     519	 1.94952	   1.162	         -3067.9	         2925.22	         -142.68
     520	 1.95837	 1.13525	        -3081.37	         2938.51	        -142.867
     521	 1.96757	 1.10656	         -3095.3	          2952.3	        -143.003
     522	 1.97554	 1.08085	        -3107.28	         2964.25	        -143.025
     523	  1.9818	 1.05986	         -3116.6	         2973.64	        -142.955
     524	 1.98673	 1.04271	        -3123.93	         2981.03	        -142.901
     525	 1.99067	 1.02856	        -3129.86	         2986.95	        -142.914
     526	 1.99353	 1.01795	        -3134.16	         2991.23	        -142.923
     527	 1.99517	 1.01136	         -3136.6	          2993.7	        -142.894
     528	 1.99574	 1.00837	        -3137.42	         2994.55	        -142.872
     529	 1.99536	 1.00855	        -3136.85	         2993.99	        -142.861
     530	 1.99411	 1.01169	        -3134.95	          2992.1	        -142.843
     531	 1.99207	 1.01736	        -3131.88	         2989.06	         -142.82
     532	  1.9894	 1.02502	        -3127.85	         2985.04	        -142.812
     533	  1.9861	 1.03442	        -3122.91	         2980.09	        -142.822
     534	 1.98211	 1.04562	        -3116.92	         2974.11	        -142.812
     535	 1.97762	 1.05802	        -3110.11	         2967.38	        -142.738
     536	 1.97337	 1.06935	        -3103.61	            2961	        -142.617
     537	 1.97042	 1.07636	        -3099.12	         2956.58	         -142.54
     538	 1.96943	 1.07711	        -3097.63	          2955.1	        -142.532
     539	 1.97044	  1.0716	        -3099.14	         2956.61	        -142.527
     540	 1.97325	 1.06042	        -3103.36	         2960.82	        -142.537
     541	  1.9774	 1.04487	        -3109.67	         2967.05	        -142.617
     542	 1.98192	 1.02798	        -3116.57	         2973.83	        -142.736
     543	 1.98555	  1.0136	         -3122.1	         2979.27	        -142.825
     544	 1.98734	 1.00461	        -3124.81	         2981.95	        -142.855
     545	 1.98696	 1.00198	        -3124.23	         2981.39	        -142.837
     546	 1.98471	 1.00495	        -3120.78	         2978.01	        -142.771
     547	 1.98148	 1.01095	        -3115.79	         2973.16	        -142.629
     548	 1.97891	 1.01526	        -3111.74	         2969.31	        -142.427
     549	 1.97902	 1.01193	         -3111.8	         2969.47	        -142.328
     550	 1.98266	0.998339	        -3117.43	         2974.93	        -142.495
     551	 1.98838	0.978898	        -3126.29	         2983.51	        -142.777
     552	  1.9937	0.961235	         -3134.4	          2991.5	        -142.894
     553	  1.9973	0.949272	        -3139.76	         2996.89	        -142.866
     554	 1.99906	  0.9432	        -3142.39	         2999.54	        -142.856
     555	 1.99908	0.942918	         -3142.4	         2999.57	        -142.825
     556	 1.99767	0.947587	        -3140.21	         2997.46	         -142.75
     557	 1.99541	0.955282	        -3136.81	         2994.05	        -142.754
     558	 1.99225	0.965794	         -3132.2	         2989.33	        -142.879
     559	 1.98737	0.981464	        -3124.98	            2982	        -142.976
     560	 1.98034	 1.00342	        -3114.33	         2971.46	        -142.872
     561	 1.97266	  1.0272	        -3102.47	         2959.94	        -142.535
     562	 1.96769	 1.04269	        -3094.73	         2952.48	        -142.243
     563	 1.96805	  1.0419	        -3095.34	         2953.02	         -142.32
     564	  1.9732	  1.0267	         -3103.3	         2960.74	        -142.559
     565	  1.9807	 1.00448	        -3114.72	            2972	        -142.727
     566	 1.98833	 0.98169	        -3126.28	         2983.44	        -142.841
     567	 1.99452	0.963076	        -3135.63	         2992.73	          -142.9
     568	 1.99843	0.951303	        -3141.46	         2998.59	        -142.875
     569	 2.00007	0.946393	        -3143.85	         3001.05	        -142.804
     570	 1.99999	0.946723	        -3143.68	         3000.93	        -142.746
     571	 1.99873	0.950652	        -3141.76	         2999.04	        -142.717
     572	 1.99659	 0.95718	        -3138.53	         2995.83	          -142.7
     573	 1.99378	0.965545	        -3134.28	         2991.61	        -142.662
     574	  1.9907	0.974452	        -3129.59	            2987	        -142.595
     575	 1.98799	0.981901	        -3125.46	         2982.93	        -142.528
     576	  1.9863	0.985867	        -3122.88	          2980.4	        -142.483
     577	 1.98614	0.984899	         -3122.6	         2980.15	        -142.456
     578	 1.98778	0.978153	        -3125.06	         2982.62	         -142.44
     579	 1.99137	0.965323	        -3130.45	            2988	        -142.449
     580	  1.9967	0.947027	         -3138.5	            2996	        -142.502
     581	 2.00316	0.925232	        -3148.27	         3005.68	        -142.586
     582	 2.00983	0.902783	        -3158.35	          3015.7	        -142.651
     583	 2.01596	0.882163	        -3167.56	         3024.88	        -142.678
     584	 2.02107	 0.86489	        -3175.25	         3032.55	        -142.702
     585	 2.02476	0.852265	        -3180.85	         3038.09	        -142.761
     586	 2.02642	0.846182	         -3183.4	         3040.57	        -142.833
     587	 2.02542	0.848475	        -3181.92	         3039.07	        -142.852
     588	 2.02172	0.859206	         -3176.3	         3033.53	        -142.772
     589	 2.01627	0.875458	        -3167.95	         3025.36	        -142.598
     590	 2.01093	0.891632	        -3159.74	         3017.34	        -142.397
     591	 2.00774	0.901559	        -3154.84	         3012.55	        -142.284
     592	 2.00789	0.901646	         -3155.1	         3012.78	        -142.321
     593	 2.01114	0.892609	        -3160.13	         3017.66	        -142.466
     594	 2.01613	 0.87854	        -3167.79	         3025.14	        -142.649
     595	 2.02102	0.864864	        -3175.29	         3032.48	        -142.806
     596	 2.02426	0.856343	        -3180.21	         3037.33	        -142.882
     597	 2.02503	0.855444	        -3181.36	         3038.49	        -142.862
     598	  2.0235	0.861828	        -3178.98	          3036.2	        -142.781
     599	 2.02044	0.873288	        -3174.31	         3031.61	        -142.701
     600	 2.01667	0.887405	        -3168.62	         3025.95	        -142.669
     601	 2.01267	0.902743	        -3162.61	         3019.95	        -142.655
     602	 2.00883	0.918222	        -3156.78	         3014.19	        -142.583
     603	 2.00586	0.931646	        -3152.24	         3009.74	        -142.505
     604	 2.00434	0.941085	        -3149.99	         3007.46	        -142.529
     605	 2.00401	0.947345	        -3149.58	         3006.97	        -142.612
     606	 2.00397	0.953079	        -3149.58	         3006.89	        -142.687
     607	 2.00331	0.960855	        -3148.64	         3005.91	        -142.729
     608	 2.00151	0.972235	        -3145.94	         3003.21	        -142.724
     609	 1.99855	  0.9873	        -3141.45	         2998.77	        -142.676
     610	 1.99485	 1.00478	        -3135.84	         2993.22	        -142.614
     611	 1.99104	 1.02285	        -3130.08	         2987.51	        -142.573
     612	 1.98758	 1.04014	        -3124.89	         2982.31	         -142.58
     613	 1.98452	 1.05645	        -3120.33	         2977.72	        -142.616
     614	 1.98167	 1.07236	        -3116.09	         2973.45	        -142.638
     615	 1.97892	 1.08814	        -3111.97	         2969.33	        -142.643
     616	 1.97632	 1.10355	        -3108.09	         2965.42	        -142.662
     617	 1.97384	 1.11853	        -3104.41	         2961.71	        -142.694
     618	 1.97148	 1.13311	        -3100.86	         2958.16	        -142.696
     619	 1.96946	 1.14644	        -3097.81	         2955.14	        -142.667
     620	 1.96831	 1.15689	        -3096.05	         2953.41	        -142.638
     621	 1.96859	 1.16277	        -3096.43	         2953.84	        -142.587
     622	 1.97099	 1.16214	        -3099.95	         2957.43	        -142.519
     623	  1.9761	 1.15328	        -3107.64	          2965.1	         -142.54
     624	 1.98355	  1.1373	        -3118.99	         2976.27	        -142.724
     625	 1.99148	 1.11985	        -3131.16	         2988.17	        -142.997
     626	 1.99722	 1.10895	        -3139.98	         2996.77	        -143.214
     627	 1.99862	 1.11093	        -3142.15	         2998.88	         -143.27
     628	 1.99514	  1.1274	        -3136.82	         2993.66	        -143.162
     629	 1.98789	 1.15492	        -3125.75	         2982.79	         -142.96
     630	 1.97907	 1.18684	         -3112.3	         2969.56	        -142.741
     631	 1.97114	 1.21575	        -3100.22	         2957.65	        -142.571
     632	 1.96596	 1.23576	        -3092.41	         2949.88	        -142.531
     633	 1.96416	 1.24484	        -3089.77	         2947.18	        -142.589
     634	 1.96532	 1.24411	        -3091.56	         2948.93	        -142.631
     635	  1.9689	 1.23509	        -3096.94	         2954.29	        -142.651
     636	 1.97438	 1.21921	        -3105.22	         2962.52	        -142.701
     637	 1.98101	 1.19888	        -3115.26	         2972.46	          -142.8
     638	  1.9876	 1.17777	        -3125.29	         2982.35	        -142.939
     639	 1.99267	 1.16049	        -3133.04	         2989.95	        -143.085
     640	 1.99486	 1.15125	         -3136.4	         2993.23	        -143.161
     641	 1.99377	  1.1516	        -3134.64	         2991.61	        -143.038
     642	 1.99102	 1.15725	        -3130.17	         2987.48	        -142.697
     643	 1.98969	 1.15897	        -3128.04	         2985.48	        -142.565
     644	 1.99085	 1.15349	        -3130.07	         2987.22	        -142.853
     645	 1.99219	 1.14819	        -3132.32	         2989.23	        -143.091
     646	 1.99118	  1.1504	        -3130.87	         2987.71	        -143.158
     647	 1.98676	 1.16286	        -3124.25	         2981.08	         -143.17
     648	 1.97889	  1.1856	        -3112.38	         2969.28	        -143.099
     649	 1.96874	 1.21534	        -3096.88	         2954.05	        -142.835
     650	 1.95921	 1.24353	        -3082.22	         2939.75	        -142.468
     651	 1.95374	 1.25974	         -3073.9	         2931.55	        -142.351
     652	 1.95351	  1.2604	        -3073.74	         2931.21	        -142.528
     653	 1.95696	 1.25027	        -3079.14	         2936.38	        -142.763
     654	 1.96168	 1.23633	        -3086.36	         2943.46	        -142.901
     655	 1.96615	 1.22306	        -3093.05	         2950.17	        -142.879
     656	 1.97026	 1.21075	        -3099.14	         2956.34	        -142.792
     657	 1.97455	 1.19783	        -3105.53	         2962.77	        -142.763
     658	 1.97921	 1.18386	        -3112.52	         2969.76	        -142.759
     659	 1.98418	 1.16913	        -3119.96	         2977.21	        -142.745
     660	 1.98929	 1.15411	        -3127.69	         2984.88	        -142.813
     661	 1.99369	 1.14126	        -3134.45	         2991.48	        -142.973
     662	 1.99586	 1.13513	        -3137.83	         2994.74	        -143.083
     663	 1.99476	 1.13878	        -3136.16	         2993.09	         -143.07
     664	 1.99043	 1.15179	        -3129.59	         2986.59	        -142.999
     665	 1.98362	 1.17164	        -3119.32	         2976.37	        -142.943
     666	 1.97526	 1.19536	        -3106.69	         2963.83	        -142.861
     667	 1.96679	 1.21867	        -3093.77	         2951.14	         -142.63
     668	 1.96094	 1.23356	        -3084.67	         2942.36	        -142.312
     669	 1.96063	 1.23105	        -3084.17	         2941.89	         -142.28
     670	 1.96613	 1.21033	        -3092.73	         2950.14	        -142.597
     671	 1.97461	 1.18021	        -3105.76	         2962.87	        -142.889
     672	 1.98294	 1.15009	        -3118.37	         2975.36	        -143.012
     673	 1.98932	 1.12528	        -3127.97	         2984.92	        -143.051
     674	   1.993	 1.10809	        -3133.48	         2990.45	        -143.028
     675	 1.99414	 1.09841	        -3135.05	         2992.15	        -142.905
     676	 1.99387	 1.09302	        -3134.44	         2991.75	        -142.698
     677	 1.99406	 1.08648	        -3134.57	         2992.04	        -142.526
     678	 1.99619	 1.07445	        -3137.76	         2995.24	        -142.529
     679	 2.00013	 1.05728	        -3143.84	         3001.14	        -142.704
     680	 2.00426	 1.03984	        -3150.21	         3007.34	        -142.867
     681	 2.00707	 1.02672	         -3154.4	         3011.55	        -142.851
     682	  2.0085	 1.01799	        -3156.38	         3013.69	        -142.686
     683	 2.00988	 1.00972	        -3158.27	         3015.76	        -142.506
     684	 2.01275	0.997438	        -3162.49	         3020.07	        -142.416
     685	 2.01783	0.979119	        -3170.15	          3027.7	        -142.452
     686	  2.0247	0.956228	        -3180.56	            3038	        -142.562
     687	 2.03215	 0.93253	        -3191.86	         3049.17	        -142.692
     688	 2.03873	 0.91245	        -3201.85	         3059.04	        -142.813
     689	 2.04309	0.900117	        -3208.49	         3065.58	        -142.914
     690	 2.04411	0.898853	         -3210.1	         3067.11	        -142.992
     691	 2.04103	0.910843	        -3205.51	         3062.49	        -143.017
     692	 2.03377	0.936193	        -3194.53	         3051.61	        -142.929
     693	 2.02341	0.971516	        -3178.78	         3036.06	        -142.719
     694	 2.01217	 1.00987	        -3161.66	          3019.2	        -142.467
     695	 2.00265	 1.04315	        -3147.22	         3004.92	        -142.303
     696	 1.99664	  1.0657	        -3138.21	         2995.91	        -142.304
     697	 1.99436	 1.07653	        -3134.93	         2992.49	        -142.441
     698	 1.99468	 1.07878	        -3135.59	         2992.96	        -142.625
     699	  1.9959	  1.0773	        -3137.57	         2994.79	        -142.772
     700	 1.99662	 1.07622	         -3138.7	         2995.87	        -142.827
     701	 1.99627	 1.07729	        -3138.14	         2995.35	        -142.785
     702	 1.99518	 1.07963	        -3136.42	         2993.72	        -142.699
     703	 1.99413	 1.08107	        -3134.77	         2992.14	        -142.633
     704	 1.99377	 1.07981	        -3134.21	          2991.6	        -142.611
     705	 1.99437	 1.07517	        -3135.12	         2992.49	        -142.627
     706	 1.99583	 1.06748	        -3137.36	         2994.69	        -142.665
     707	  1.9979	 1.05763	        -3140.48	         2997.79	         -142.69
     708	 2.00044	  1.0461	        -3144.26	         3001.61	        -142.648
     709	 2.00391	 1.03178	        -3149.38	         3006.82	        -142.558
     710	 2.00898	 1.01274	        -3156.98	         3014.42	        -142.561
     711	 2.01545	0.989643	        -3166.84	         3024.12	        -142.714
     712	 2.02192	0.966944	        -3176.71	         3033.83	        -142.878
     713	 2.02686	0.949425	        -3184.15	         3041.23	        -142.924
     714	 2.02971	0.938809	        -3188.38	         3045.52	        -142.868
     715	 2.03089	0.934005	        -3190.09	         3047.28	         -142.81
     716	  2.0309	0.933582	         -3190.1	          3047.3	        -142.797
     717	 2.02992	0.937066	        -3188.62	         3045.82	        -142.803
     718	 2.02791	0.944466	         -3185.6	         3042.81	         -142.79
     719	 2.02503	0.955273	        -3181.23	         3038.49	        -142.735
     720	 2.02173	0.967978	        -3176.22	         3033.54	        -142.675
     721	 2.01848	0.980985	        -3171.35	         3028.67	        -142.678
     722	 2.01525	0.994237	        -3166.57	         3023.81	        -142.751
     723	 2.01146	 1.00924	        -3160.95	         3018.14	        -142.806
     724	 2.00686	 1.02677	        -3153.97	         3011.23	        -142.739
     725	 2.00217	 1.04449	         -3146.8	          3004.2	        -142.601
     726	 1.99861	 1.05851	        -3141.45	         2998.86	        -142.591
     727	 1.99636	 1.06819	        -3138.19	         2995.48	        -142.705
     728	 1.99461	 1.07603	         -3135.6	         2992.86	        -142.745
     729	 1.99298	 1.08307	         -3133.1	         2990.42	        -142.677
     730	 1.99199	 1.08771	        -3131.53	         2988.93	        -142.606
     731	 1.99225	 1.08818	        -3131.91	         2989.32	        -142.588
     732	 1.99398	 1.08408	        -3134.51	         2991.91	        -142.596
     733	 1.99703	 1.07601	        -3139.11	         2996.49	        -142.628
     734	  2.0009	 1.06558	        -3145.02	         3002.29	        -142.725
     735	 2.00453	 1.05608	         -3150.6	         3007.74	        -142.853
     736	 2.00667	 1.05143	        -3153.86	         3010.95	        -142.911
     737	 2.00668	 1.05359	        -3153.83	         3010.97	         -142.86
     738	 2.00494	  1.0615	        -3151.11	         3008.36	        -142.755
     739	 2.00235	 1.07246	        -3147.14	         3004.46	        -142.679
     740	 1.99963	 1.08426	        -3143.06	          3000.4	        -142.663
     741	 1.99704	 1.09613	         -3139.2	          2996.5	        -142.694
     742	 1.99436	 1.10847	        -3135.25	         2992.49	        -142.755
     743	 1.99118	 1.12234	        -3130.54	         2987.72	        -142.816
     744	 1.98717	 1.13847	        -3124.52	          2981.7	        -142.827
     745	 1.98255	 1.15595	        -3117.52	         2974.77	        -142.745
     746	 1.97848	 1.17124	        -3111.24	         2968.66	         -142.58
     747	 1.97668	 1.17899	        -3108.43	         2965.96	        -142.465
     748	 1.97837	 1.17551	        -3110.98	         2968.49	         -142.49
     749	 1.98347	 1.16116	        -3118.72	         2976.15	        -142.572
     750	  1.9911	 1.13868	        -3130.29	          2987.6	        -142.688
     751	 1.99975	 1.11254	        -3143.46	         3000.58	        -142.885
     752	 2.00729	 1.08931	        -3154.92	         3011.88	        -143.042
     753	 2.01193	  1.0745	        -3161.89	         3018.84	        -143.052
     754	 2.01318	  1.0696	        -3163.68	         3020.71	        -142.962
     755	 2.01167	  1.0728	         -3161.3	         3018.45	        -142.842
     756	  2.0085	 1.08099	        -3156.43	         3013.69	         -142.74
     757	 2.00466	 1.09119	        -3150.64	         3007.93	        -142.704
     758	 2.00061	 1.10203	        -3144.61	         3001.86	        -142.746
     759	 1.99617	 1.11404	           -3138	         2995.19	        -142.804
     760	 1.99101	  1.1281	        -3130.26	         2987.46	        -142.808
     761	 1.98528	 1.14368	        -3121.61	         2978.86	        -142.749
     762	 1.97972	 1.15844	        -3113.18	         2970.52	         -142.66
     763	 1.97538	 1.16912	         -3106.6	         2964.01	        -142.583
     764	 1.97321	 1.17277	        -3103.31	         2960.76	        -142.553
     765	 1.97371	 1.16776	        -3104.07	         2961.51	        -142.561
     766	 1.97699	 1.15378	           -3109	         2966.43	        -142.568
     767	 1.98302	 1.13096	        -3118.04	         2975.47	        -142.573
     768	 1.99158	 1.10002	        -3130.93	         2988.32	        -142.614
     769	 2.00206	 1.06305	        -3146.74	         3004.03	        -142.708
     770	 2.01323	 1.02394	        -3163.63	         3020.79	        -142.849
     771	 2.02339	0.987973	        -3179.02	         3036.03	        -142.995
     772	 2.03083	0.960462	        -3190.27	          3047.2	        -143.078
     773	 2.03449	0.944762	        -3195.75	         3052.68	        -143.063
     774	  2.0343	0.941172	        -3195.37	          3052.4	        -142.968
     775	 2.03109	0.947336	        -3190.42	         3047.58	        -142.844
     776	  2.0261	0.959621	        -3182.83	         3040.09	        -142.743
     777	 2.02048	0.974631	        -3174.36	         3031.66	        -142.697
     778	 2.01498	0.990144	         -3166.1	         3023.41	         -142.69
     779	 2.01001	 1.00491	        -3158.65	         3015.97	        -142.679
     780	 2.00599	 1.01768	        -3152.58	         3009.94	        -142.646
     781	 2.00338	 1.02695	        -3148.66	         3006.02	         -142.64
     782	 2.00231	 1.03221	        -3147.12	         3004.41	        -142.709
     783	 2.00221	 1.03497	        -3147.08	         3004.25	        -142.826
     784	  2.0021	 1.03803	           -3147	         3004.09	         -142.91
     785	 2.00125	 1.04346	        -3145.74	         3002.82	        -142.923
     786	  1.9995	 1.05156	        -3143.12	          3000.2	        -142.913
     787	 1.99694	 1.06198	        -3139.28	         2996.36	         -142.92
     788	 1.99363	  1.0745	        -3134.27	         2991.38	         -142.89
     789	 1.99004	  1.0877	        -3128.75	         2986.01	        -142.741
     790	  1.9877	 1.09712	           -3125	          2982.5	        -142.507
     791	 1.98872	 1.09641	        -3126.38	         2984.03	        -142.353
     792	 1.99431	  1.0819	        -3134.86	         2992.42	        -142.442
     793	 2.00345	 1.05673	        -3148.82	         3006.12	        -142.702
     794	 2.01344	 1.02901	        -3164.05	         3021.11	        -142.938
     795	 2.02168	 1.00659	        -3176.51	         3033.46	        -143.051
     796	 2.02675	0.993836	        -3184.09	         3041.07	        -143.027
     797	 2.02866	0.990906	        -3186.86	         3043.94	        -142.917
     798	 2.02836	0.995173	        -3186.31	         3043.49	        -142.818
     799	 2.02682	 1.00383	        -3183.98	         3041.18	        -142.798
     800	 2.02443	 1.01573	        -3180.41	         3037.59	        -142.821
     801	 2.02129	 1.03061	        -3175.67	         3032.88	        -142.794
     802	 2.01785	 1.04707	        -3170.43	         3027.72	        -142.715
     803	 2.01485	  1.0627	        -3165.94	         3023.23	        -142.711
     804	 2.01237	 1.07715	        -3162.34	          3019.5	        -142.835
     805	  2.0094	 1.09335	        -3158.03	         3015.05	         -142.98
     806	 2.00467	 1.11481	        -3151.06	         3007.95	        -143.107
     807	  1.9971	 1.14423	        -3139.87	          2996.6	        -143.272
     808	 1.98608	 1.18341	        -3123.29	         2980.07	        -143.212
     809	 1.97411	 1.22599	        -3104.59	          2962.1	        -142.487
     810	 1.96761	 1.25166	        -3094.67	         2952.37	          -142.3
     811	 1.96835	 1.25495	        -3096.33	         2953.47	        -142.857
     812	 1.97209	  1.2498	        -3101.95	         2959.09	        -142.862
     813	 1.97712	 1.24032	        -3109.33	         2966.63	        -142.701
     814	  1.9837	 1.22538	        -3119.27	         2976.49	        -142.779
     815	 1.99065	 1.20876	        -3129.93	         2986.91	        -143.018
     816	  1.9955	 1.19797	        -3137.42	         2994.19	        -143.221
     817	 1.99614	 1.19927	        -3138.45	         2995.16	        -143.297
     818	 1.99178	 1.21484	        -3131.86	         2988.61	        -143.244
     819	 1.98309	  1.2426	        -3118.66	         2975.59	        -143.076
     820	 1.97207	 1.27662	        -3101.86	         2959.06	        -142.806
     821	 1.96169	 1.30801	        -3085.99	         2943.47	        -142.518
     822	 1.95491	  1.3278	        -3075.68	         2933.32	        -142.364
     823	 1.95341	   1.331	        -3073.45	         2931.05	          -142.4
     824	 1.95695	 1.31827	        -3078.92	         2936.37	        -142.551
     825	 1.96405	 1.29406	        -3089.75	         2947.02	        -142.736
     826	 1.97277	 1.26418	        -3102.98	         2960.11	        -142.873
     827	 1.98162	  1.2334	        -3116.27	         2973.37	          -142.9
     828	 1.99001	 1.20371	         -3128.8	         2985.96	        -142.842
     829	 1.99808	 1.17506	        -3140.88	         2998.07	        -142.809
     830	 2.00578	 1.14797	        -3152.47	         3009.61	        -142.861
     831	 2.01235	   1.125	        -3162.43	         3019.47	        -142.955
     832	 2.01672	 1.10958	        -3169.04	         3026.02	        -143.024
     833	  2.0181	  1.1041	        -3171.12	          3028.1	        -143.026
     834	 2.01651	 1.10858	        -3168.64	         3025.71	        -142.936
     835	 2.01288	 1.12018	        -3163.04	         3020.26	        -142.784
     836	 2.00867	 1.13435	        -3156.63	         3013.95	        -142.681
     837	  2.0049	 1.14783	        -3150.98	          3008.3	        -142.688
     838	 2.00163	 1.16029	        -3146.11	         3003.38	        -142.728
     839	 1.99853	 1.17251	        -3141.45	         2998.74	        -142.714
     840	 1.99568	 1.18406	        -3137.11	         2994.47	         -142.64
     841	 1.99374	 1.19299	         -3134.1	         2991.56	        -142.541
     842	 1.99352	 1.19678	        -3133.74	         2991.23	        -142.502
     843	  1.9952	 1.19479	        -3136.38	         2993.75	        -142.632
     844	 1.99751	 1.19075	        -3140.06	         2997.21	        -142.852
     845	 1.99846	 1.19057	         -3141.6	         2998.63	        -142.972
     846	 1.99691	  1.1975	        -3139.25	         2996.31	        -142.935
     847	 1.99326	 1.21032	        -3133.62	         2990.83	        -142.784
     848	 1.98907	 1.22436	        -3127.15	         2984.55	        -142.599
     849	 1.98621	  1.2341	        -3122.75	         2980.26	        -142.494
     850	 1.98578	 1.23624	        -3122.13	         2979.62	        -142.509
     851	 1.98773	 1.23105	        -3125.15	         2982.55	          -142.6
     852	 1.99113	 1.22132	        -3130.35	         2987.64	        -142.717
     853	 1.99474	 1.21077	        -3135.86	         2993.06	        -142.802
     854	 1.99763	 1.20235	         -3140.2	         2997.39	        -142.814
     855	 1.99948	 1.19716	        -3142.94	         3000.16	        -142.784
     856	 2.00041	 1.19495	        -3144.32	         3001.55	        -142.763
     857	 2.00055	 1.19538	        -3144.55	         3001.77	        -142.776
     858	 1.99984	 1.19865	        -3143.52	         3000.71	        -142.805
     859	 1.99817	 1.20501	           -3141	          2998.2	        -142.801
     860	 1.99578	 1.21355	        -3137.35	         2994.62	        -142.732
     861	  1.9935	 1.22162	        -3133.84	          2991.2	        -142.635
     862	 1.99236	 1.22598	        -3132.09	         2989.49	          -142.6
     863	 1.99278	  1.2252	        -3132.79	         2990.11	        -142.676
     864	 1.99418	 1.22101	        -3135.02	         2992.21	        -142.807
     865	 1.99539	 1.21693	        -3136.94	         2994.04	        -142.899
     866	 1.99551	 1.21574	        -3137.14	         2994.22	        -142.917
     867	 1.99423	 1.21837	        -3135.19	         2992.29	        -142.897
     868	 1.99167	 1.22453	        -3131.31	         2988.44	        -142.865
     869	 1.98815	 1.23329	        -3126.01	         2983.18	        -142.828
     870	  1.9841	 1.24343	        -3119.92	          2977.1	        -142.814
     871	 1.97976	 1.25416	        -3113.41	         2970.58	        -142.832
     872	 1.97519	 1.26526	        -3106.55	         2963.73	        -142.814
     873	 1.97079	 1.27558	        -3099.86	         2957.12	        -142.735
     874	 1.96735	 1.28256	        -3094.65	         2951.97	        -142.683
     875	 1.96549	  1.2843	        -3091.87	         2949.17	        -142.695
     876	 1.96536	 1.28041	        -3091.67	         2948.98	         -142.69
     877	 1.96717	 1.27033	        -3094.35	          2951.7	        -142.645
     878	 1.97126	   1.253	        -3100.51	         2957.83	        -142.678
     879	 1.97726	 1.22956	        -3109.64	         2966.84	        -142.798
     880	  1.9842	 1.20333	        -3120.06	         2977.24	        -142.815
     881	 1.99174	 1.17551	        -3131.29	         2988.56	        -142.726
     882	 2.00018	 1.14531	        -3143.98	         3001.21	        -142.764
     883	 2.00881	   1.115	        -3157.12	         3014.17	        -142.951
     884	 2.01582	 1.09035	        -3167.77	         3024.67	        -143.102
     885	  2.0197	 1.07593	        -3173.61	          3030.5	        -143.103
     886	  2.0204	 1.07198	        -3174.54	         3031.55	        -142.991
     887	 2.01891	 1.07541	        -3172.22	         3029.31	        -142.907
     888	 2.01618	  1.0834	         -3168.1	         3025.21	        -142.891
     889	 2.01267	 1.09458	        -3162.79	         3019.95	        -142.847
     890	 2.00897	 1.10713	        -3157.16	         3014.39	        -142.762
     891	 2.00591	 1.11845	        -3152.51	         3009.81	        -142.704
     892	 2.00407	 1.12673	        -3149.76	         3007.05	        -142.709
     893	 2.00339	  1.1321	        -3148.81	         3006.04	        -142.779
     894	 2.00308	 1.13669	        -3148.48	         3005.57	        -142.908
     895	 2.00179	 1.14427	        -3146.66	         3003.63	        -143.028
     896	 1.99832	 1.15818	        -3141.46	         2998.43	        -143.024
     897	 1.99265	 1.17835	        -3132.79	         2989.93	        -142.861
     898	 1.98623	 1.20034	         -3122.9	         2980.28	        -142.614
     899	  1.9813	 1.21741	         -3115.3	          2972.9	        -142.404
     900	 1.97981	 1.22385	        -3112.99	         2970.66	        -142.326
     901	 1.98244	  1.2177	        -3117.02	         2974.61	        -142.413
     902	 1.98831	 1.20163	        -3126.03	         2983.41	        -142.619
     903	  1.9954	 1.18166	        -3136.89	         2994.04	        -142.849
     904	 2.00147	 1.16446	        -3146.17	         3003.14	        -143.024
     905	 2.00486	  1.1549	        -3151.34	         3008.24	        -143.104
     906	 2.00502	 1.15472	        -3151.53	         3008.47	         -143.06
     907	 2.00266	 1.16182	        -3147.84	         3004.94	        -142.905
     908	 1.99957	 1.17091	        -3143.03	          3000.3	        -142.729
     909	 1.99763	 1.17637	        -3140.05	         2997.38	        -142.665
     910	 1.99754	 1.17595	        -3140.02	         2997.25	        -142.775
     911	 1.99841	 1.17223	         -3141.5	         2998.57	        -142.935
     912	 1.99887	 1.16934	        -3142.22	         2999.25	        -142.977
     913	 1.99851	 1.16839	        -3141.58	         2998.71	         -142.87
     914	 1.99844	 1.16626	        -3141.26	         2998.61	         -142.65
     915	 2.00084	 1.15674	        -3144.65	         3002.21	        -142.441
     916	 2.00746	 1.13468	        -3154.65	         3012.14	        -142.506
     917	 2.01756	 1.10244	        -3170.12	         3027.29	        -142.833
     918	 2.02809	 1.06948	        -3186.18	         3043.08	        -143.097
     919	 2.03628	  1.0442	        -3198.51	         3055.37	        -143.139
     920	 2.04124	  1.0293	        -3205.85	         3062.81	        -143.045
     921	 2.04336	 1.02364	        -3208.97	         3065.99	        -142.974
     922	 2.04307	 1.02608	         -3208.5	         3065.55	        -142.949
     923	 2.04049	 1.03632	        -3204.58	         3061.68	        -142.902
     924	 2.03593	 1.05333	        -3197.68	         3054.84	        -142.836
     925	 2.02994	 1.07527	        -3188.65	         3045.86	        -142.787
     926	 2.02311	 1.10025	        -3178.36	         3035.61	        -142.753
     927	 2.01599	 1.12641	        -3167.64	         3024.93	        -142.712
     928	 2.00927	 1.15154	        -3157.51	         3014.86	        -142.653
     929	 2.00384	 1.17293	        -3149.28	          3006.7	        -142.583
     930	 2.00047	 1.18801	        -3144.25	         3001.65	        -142.595
     931	 1.99903	 1.19692	        -3142.27	         2999.49	        -142.782
     932	 1.99796	 1.20424	        -3140.84	         2997.88	        -142.957
     933	 1.99578	 1.21439	        -3137.54	         2994.61	        -142.924
     934	  1.9926	 1.22682	        -3132.66	         2989.85	        -142.804
     935	  1.9894	 1.23848	         -3127.8	         2985.05	        -142.749
     936	  1.9868	 1.24765	        -3123.87	         2981.14	        -142.729
     937	 1.98497	 1.25372	        -3121.14	          2978.4	        -142.739
     938	 1.98377	 1.25708	        -3119.39	          2976.6	        -142.789
     939	 1.98275	 1.25908	        -3117.89	         2975.07	        -142.815
     940	 1.98167	 1.26045	        -3116.23	         2973.45	        -142.782
     941	 1.98082	 1.26039	        -3114.88	         2972.17	        -142.705
     942	 1.98098	 1.25673	        -3115.01	         2972.41	        -142.596
     943	 1.98319	 1.24657	        -3118.25	         2975.73	        -142.516
     944	 1.98813	 1.22805	        -3125.68	         2983.15	        -142.528
     945	 1.99561	 1.20195	        -3136.98	         2994.36	        -142.613
     946	 2.00465	 1.17136	        -3150.64	         3007.92	        -142.715
     947	 2.01401	 1.14012	        -3164.76	         3021.96	        -142.804
     948	 2.02253	 1.11183	         -3177.6	         3034.74	        -142.867
     949	 2.02929	 1.08934	         -3187.8	         3044.88	        -142.923
     950	 2.03353	   1.075	        -3194.23	         3051.25	        -142.978
     951	  2.0347	 1.07056	        -3195.98	            3053	        -142.975
     952	 2.03291	 1.07579	        -3193.19	         3050.32	        -142.868
     953	 2.02919	 1.08755	        -3187.47	         3044.73	        -142.737
     954	 2.02476	 1.10202	        -3180.81	         3038.09	        -142.718
     955	 2.01995	   1.118	        -3173.68	         3030.87	        -142.803
     956	 2.01426	 1.13678	         -3165.2	         3022.34	        -142.853
     957	 2.00745	 1.15882	        -3154.92	         3012.11	        -142.802
     958	 2.00011	 1.18193	        -3143.81	         3001.12	        -142.694
     959	 1.99348	 1.20229	        -3133.74	         2991.16	        -142.584
     960	 1.98883	 1.21596	        -3126.68	         2984.19	        -142.487
     961	 1.98731	 1.21957	        -3124.33	         2981.91	        -142.421
     962	 1.98962	 1.21101	        -3127.81	         2985.37	        -142.433
     963	  1.9956	 1.19079	        -3136.91	         2994.35	        -142.559
     964	 2.00401	 1.16273	         -3149.7	         3006.96	        -142.742
     965	 2.01304	 1.13241	        -3163.37	         3020.51	        -142.861
     966	 2.02138	 1.10387	         -3175.9	         3033.02	        -142.878
     967	  2.0286	 1.07853	        -3186.72	         3043.85	        -142.875
     968	 2.03455	 1.05693	        -3195.69	         3052.76	        -142.928
     969	 2.03875	 1.04055	        -3202.09	         3059.06	        -143.022
     970	 2.04059	 1.03133	        -3204.89	         3061.84	        -143.057
     971	  2.0402	 1.02916	        -3204.19	         3061.25	        -142.941
     972	 2.03903	 1.02991	        -3202.24	         3059.49	        -142.749
     973	 2.03893	 1.02804	        -3202.08	         3059.34	        -142.741
     974	 2.03988	  1.0235	         -3203.8	         3060.77	        -143.034
     975	 2.03934	 1.02409	        -3203.23	         3059.95	        -143.281
     976	 2.03492	 1.03681	        -3196.57	         3053.33	        -143.235
     977	 2.02672	 1.06111	        -3184.07	         3041.02	        -143.047
     978	 2.01635	 1.09183	        -3168.39	         3025.47	        -142.921
     979	 2.00534	  1.1244	        -3151.78	         3008.96	        -142.816
     980	 1.99517	 1.15446	        -3136.32	         2993.71	        -142.609
     981	 1.98784	 1.17577	        -3125.14	          2982.7	        -142.438
     982	 1.98486	 1.18355	        -3120.67	         2978.24	        -142.429
     983	 1.98628	 1.17769	         -3122.9	         2980.37	        -142.532
     984	 1.99094	 1.16169	        -3129.99	         2987.35	        -142.643
     985	 1.99741	 1.13981	        -3139.77	         2997.06	         -142.71
     986	 2.00456	 1.11555	        -3150.56	         3007.78	        -142.781
     987	 2.01121	 1.09248	        -3160.67	         3017.76	        -142.913
     988	 2.01587	 1.07518	        -3167.81	         3024.76	        -143.053
     989	 2.01728	 1.06767	        -3169.94	         3026.87	        -143.069
     990	 2.01562	 1.06979	        -3167.22	         3024.38	        -142.848
     991	 2.01308	 1.07519	        -3163.17	         3020.56	        -142.613
     992	 2.01165	 1.07767	        -3161.17	         3018.43	         -142.74
     993	 2.01059	 1.07979	         -3159.8	         3016.83	        -142.968
     994	 2.00804	 1.08717	           -3156	         3013.01	        -142.993
     995	  2.0037	 1.10049	        -3149.34	         3006.49	        -142.847
     996	 1.99887	 1.11568	        -3141.93	         2999.26	        -142.675
     997	 1.99521	 1.12782	        -3136.35	         2993.76	        -142.597
     998	 1.99357	 1.13439	        -3133.88	         2991.29	        -142.588
     999	 1.99409	 1.13497	        -3134.67	         2992.08	        -142.591
