    Step 	 temperature 	 pressure 	 Potential Energy 	 Kinetic Energy 	 Sum Energy

       0	 2.29667	 6.92659	        -5438.69	         3459.45	        -1979.24
       1	 2.27117	 7.07333	        -5400.52	         3421.19	        -1979.33
       2	 2.19473	 7.51157	        -5285.97	         3306.54	        -1979.43
       3	 2.06852	 8.23066	        -5096.52	         3117.22	         -1979.3
       4	 1.89759	 9.19789	        -4839.23	         2860.82	        -1978.41
       5	 1.69553	 10.3353	        -4533.94	         2557.73	        -1976.21
       6	  1.4884	 11.4993	        -4219.87	         2247.04	        -1972.84
       7	 1.31158	 12.4964	        -3951.54	          1981.8	        -1969.73
       8	 1.19603	 13.1574	        -3777.06	         1808.48	        -1968.58
       9	 1.15379	 13.4161	        -3714.68	         1745.12	        -1969.56
      10	 1.17577	 13.3204	        -3749.71	          1778.1	        -1971.61
      11	 1.24077	  12.983	         -3849.3	         1875.59	        -1973.71
      12	 1.32585	 12.5265	        -3978.51	         2003.21	         -1975.3
      13	 1.41268	 12.0506	        -4109.68	         2133.46	        -1976.22
      14	 1.48969	 11.6199	        -4225.54	         2248.97	        -1976.57
      15	 1.55163	 11.2656	         -4318.4	         2341.89	        -1976.51
      16	 1.59804	 10.9932	        -4387.69	         2411.51	        -1976.18
      17	 1.63181	 10.7899	        -4437.82	         2462.15	        -1975.67
      18	 1.65793	 10.6302	        -4476.45	         2501.34	        -1975.12
      19	 1.68188	 10.4856	        -4512.02	         2537.26	        -1974.76
      20	 1.70743	 10.3357	         -4550.3	         2575.58	        -1974.71
      21	  1.7356	  10.175	        -4592.68	         2617.84	        -1974.84
      22	 1.76581	 10.0065	        -4638.09	         2663.16	        -1974.92
      23	 1.79742	 9.83325	        -4685.59	         2710.56	        -1975.02
      24	  1.8294	 9.66009	         -4733.8	         2758.54	        -1975.26
      25	  1.8597	 9.49801	         -4779.5	         2803.99	        -1975.51
      26	 1.88609	 9.35872	        -4819.23	         2843.57	        -1975.66
      27	 1.90749	 9.24779	         -4851.3	         2875.67	        -1975.64
      28	  1.9246	 9.16144	        -4876.79	         2901.33	        -1975.46
      29	 1.93963	 9.08778	        -4899.15	         2923.89	        -1975.27
      30	 1.95492	 9.01415	        -4922.07	         2946.83	        -1975.25
      31	  1.9712	 8.93636	        -4946.74	         2971.23	         -1975.5
      32	 1.98662	 8.86367	        -4970.35	         2994.38	        -1975.97
      33	 1.99764	 8.81486	        -4987.29	          3010.9	        -1976.38
      34	 2.00125	  8.8057	        -4992.84	         3016.32	        -1976.52
      35	 1.99711	 8.83792	        -4986.43	          3010.1	        -1976.33
      36	   1.988	 8.89685	        -4972.33	         2996.44	        -1975.89
      37	 1.97892	  8.9561	        -4958.27	         2982.82	        -1975.45
      38	 1.97441	 8.99107	        -4951.43	         2976.05	        -1975.38
      39	 1.97562	  8.9954	        -4953.56	         2977.88	        -1975.69
      40	 1.98016	 8.98193	        -4960.73	         2984.68	        -1976.04
      41	 1.98493	 8.96708	           -4968	         2991.83	        -1976.17
      42	 1.98863	 8.95734	        -4973.51	         2997.38	        -1976.13
      43	 1.99142	 8.95173	        -4977.69	         3001.57	        -1976.12
      44	 1.99346	 8.94996	        -4980.73	         3004.62	        -1976.11
      45	  1.9948	 8.95215	        -4982.72	         3006.64	        -1976.08
      46	 1.99546	  8.9584	        -4983.74	         3007.63	        -1976.11
      47	 1.99492	 8.97146	        -4983.01	         3006.83	        -1976.18
      48	 1.99246	  8.9952	        -4979.35	         3003.13	        -1976.22
      49	 1.98779	 9.03081	        -4972.28	         2996.13	        -1976.16
      50	 1.98176	  9.0737	        -4963.05	         2987.08	        -1975.97
      51	 1.97634	  9.1133	        -4954.69	         2978.95	        -1975.75
      52	 1.97364	 9.13841	        -4950.57	          2974.9	        -1975.67
      53	 1.97425	 9.14599	        -4951.66	         2975.81	        -1975.85
      54	 1.97642	 9.14562	        -4955.25	         2979.07	        -1976.18
      55	 1.97703	 9.15412	        -4956.45	         2979.98	        -1976.46
      56	 1.97354	 9.18505	        -4951.31	         2974.76	        -1976.55
      57	 1.96536	 9.24143	        -4938.94	         2962.49	        -1976.46
      58	 1.95382	 9.31589	        -4921.44	         2945.16	        -1976.28
      59	  1.9412	 9.39583	        -4902.33	         2926.25	        -1976.08
      60	 1.93004	 9.46774	        -4885.37	         2909.49	        -1975.88
      61	 1.92272	 9.51844	        -4874.25	         2898.52	        -1975.73
      62	 1.92085	 9.53902	        -4871.47	         2895.71	        -1975.75
      63	  1.9243	 9.52979	        -4876.84	          2900.9	        -1975.95
      64	 1.93135	 9.49975	        -4887.65	         2911.47	        -1976.19
      65	 1.93982	 9.46035	        -4900.48	         2924.17	        -1976.31
      66	 1.94857	 9.41763	        -4913.58	          2937.3	        -1976.28
      67	 1.95764	 9.37108	        -4927.19	          2950.9	        -1976.29
      68	 1.96667	 9.32233	        -4940.89	         2964.45	        -1976.44
      69	 1.97432	 9.27916	        -4952.43	         2975.91	        -1976.51
      70	  1.9798	 9.24612	        -4960.51	         2984.14	        -1976.37
      71	 1.98422	 9.21777	        -4966.86	         2990.77	        -1976.09
      72	 1.98993	 9.18195	        -4975.19	         2999.33	        -1975.86
      73	 1.99873	 9.12922	        -4988.38	         3012.53	        -1975.85
      74	 2.01055	 9.06052	        -5006.22	         3030.27	        -1975.95
      75	 2.02425	 8.98276	        -5026.78	         3050.81	        -1975.97
      76	 2.03887	 8.90108	        -5048.75	         3072.74	        -1976.01
      77	 2.05316	 8.82214	         -5070.4	         3094.18	        -1976.22
      78	 2.06459	 8.75971	        -5087.86	         3111.33	        -1976.53
      79	 2.07008	 8.73044	        -5096.29	         3119.56	        -1976.73
      80	 2.06783	   8.744	        -5092.87	         3116.18	        -1976.69
      81	 2.05863	  8.7963	         -5078.8	         3102.39	        -1976.42
      82	 2.04555	 8.87094	         -5058.9	         3082.76	        -1976.14
      83	 2.03163	  8.9511	        -5038.05	         3061.89	        -1976.16
      84	 2.01764	 9.03257	        -5017.27	          3040.9	        -1976.36
      85	 2.00285	 9.11931	         -4995.1	         3018.71	        -1976.39
      86	 1.98777	 9.20803	        -4972.27	         2996.09	        -1976.18
      87	 1.97497	 9.28472	        -4952.76	         2976.89	        -1975.86
      88	 1.96787	 9.33124	         -4941.9	         2966.25	        -1975.65
      89	 1.96831	 9.33722	        -4942.81	          2966.9	        -1975.91
      90	 1.97381	 9.31584	        -4951.61	         2975.16	        -1976.45
      91	 1.97932	  9.2946	        -4960.16	         2983.42	        -1976.74
      92	 1.98147	 9.29094	        -4963.35	         2986.64	         -1976.7
      93	 1.97987	 9.30654	        -4960.79	         2984.25	        -1976.54
      94	 1.97549	 9.33579	        -4954.19	         2977.68	        -1976.51
      95	 1.96859	   9.377	        -4943.95	         2967.33	        -1976.62
      96	 1.95878	 9.43223	        -4929.18	         2952.61	        -1976.57
      97	 1.94723	  9.4951	        -4911.52	         2935.29	        -1976.23
      98	  1.9374	  9.5464	        -4896.45	         2920.54	        -1975.91
      99	 1.93252	 9.56842	        -4889.08	         2913.22	        -1975.86
     100	 1.93347	 9.55675	        -4890.62	         2914.65	        -1975.97
     101	 1.93924	 9.51691	        -4899.43	          2923.3	        -1976.13
     102	 1.94808	 9.45839	        -4912.84	         2936.56	        -1976.28
     103	 1.95813	 9.39139	        -4928.04	         2951.64	         -1976.4
     104	 1.96784	 9.32482	        -4942.66	          2966.2	        -1976.46
     105	 1.97643	 9.26366	        -4955.48	         2979.08	         -1976.4
     106	 1.98417	  9.2072	        -4967.01	          2990.7	        -1976.31
     107	 1.99173	 9.15269	        -4978.35	         3002.03	        -1976.31
     108	 1.99903	 9.10115	        -4989.42	         3012.99	        -1976.43
     109	 2.00506	 9.05861	        -4998.63	         3022.03	         -1976.6
     110	 2.00835	 9.03321	        -5003.66	         3026.97	         -1976.7
     111	 2.00821	 9.02895	        -5003.37	         3026.75	        -1976.62
     112	 2.00534	 9.04168	        -4998.94	         3022.45	        -1976.49
     113	  2.0012	  9.0636	        -4992.55	         3016.24	        -1976.31
     114	  1.9979	 9.08382	        -4987.28	         3011.29	           -1976
     115	 1.99838	 9.08639	         -4987.8	            3012	        -1975.79
     116	 2.00424	 9.06205	        -4996.78	         3020.79	        -1975.98
     117	 2.01374	 9.02019	        -5011.36	         3035.05	        -1976.31
     118	 2.02367	 8.97794	        -5026.39	         3049.94	        -1976.46
     119	  2.0319	 8.94572	         -5038.8	         3062.29	        -1976.51
     120	 2.03735	 8.92886	        -5047.02	         3070.46	        -1976.56
     121	 2.03944	 8.93037	        -5050.08	          3073.6	        -1976.48
     122	 2.03886	 8.94644	        -5049.02	         3072.73	        -1976.29
     123	 2.03697	 8.96878	        -5046.18	          3069.9	        -1976.28
     124	 2.03381	 8.99672	        -5041.66	         3065.16	        -1976.51
     125	 2.02781	 9.03889	         -5032.8	         3056.15	        -1976.65
     126	 2.01801	 9.10023	        -5018.07	         3041.45	        -1976.62
     127	 2.00528	 9.17639	        -4998.77	         3022.36	        -1976.41
     128	 1.99224	 9.25387	        -4978.92	          3002.8	        -1976.12
     129	 1.98186	 9.31671	         -4963.3	         2987.22	        -1976.08
     130	 1.97483	 9.36125	        -4952.95	         2976.69	        -1976.27
     131	 1.96956	 9.39627	         -4945.2	         2968.78	        -1976.43
     132	 1.96422	 9.43085	        -4937.25	         2960.77	        -1976.48
     133	 1.95798	 9.46877	        -4927.85	         2951.42	        -1976.44
     134	 1.95129	 9.50731	        -4917.65	         2941.37	        -1976.28
     135	 1.94591	 9.53682	         -4909.3	         2933.31	        -1975.99
     136	 1.94486	 9.54149	        -4907.39	         2931.73	        -1975.66
     137	 1.95103	 9.50561	        -4916.61	         2940.99	        -1975.62
     138	 1.96454	 9.42859	        -4937.23	         2961.25	        -1975.98
     139	 1.98175	 9.33041	        -4963.49	         2987.07	        -1976.42
     140	 1.99798	 9.23642	        -4988.06	         3011.41	        -1976.65
     141	 2.01032	  9.1622	        -5006.54	         3029.92	        -1976.63
     142	  2.0184	 9.10994	        -5018.48	         3042.05	        -1976.43
     143	 2.02371	 9.07229	        -5026.23	            3050	        -1976.22
     144	 2.02811	 9.03983	        -5032.73	         3056.61	        -1976.12
     145	 2.03286	 9.00686	        -5039.81	         3063.73	        -1976.08
     146	 2.03853	 8.97111	        -5048.34	         3072.24	         -1976.1
     147	 2.04488	 8.93423	        -5058.06	         3081.76	         -1976.3
     148	 2.04994	 8.90677	        -5066.06	         3089.35	         -1976.7
     149	 2.04986	 8.90909	        -5066.38	         3089.23	        -1977.15
     150	 2.04079	 8.96165	        -5052.89	         3075.62	        -1977.27
     151	 2.02218	 9.06715	        -5024.59	         3047.71	        -1976.88
     152	  1.9983	 9.20234	        -4988.11	          3011.9	        -1976.22
     153	 1.97608	 9.32999	        -4954.24	         2978.55	        -1975.69
     154	 1.96129	 9.41904	        -4931.88	         2956.38	         -1975.5
     155	 1.95625	 9.45699	        -4924.46	         2948.82	        -1975.64
     156	 1.95974	 9.44983	        -4929.97	         2954.05	        -1975.93
     157	 1.96855	  9.4139	         -4943.5	         2967.27	        -1976.23
     158	 1.97895	  9.3684	        -4959.36	         2982.86	        -1976.49
     159	 1.98761	 9.33075	        -4972.49	         2995.85	        -1976.64
     160	 1.99249	 9.31173	        -4979.79	         3003.17	        -1976.61
     161	 1.99335	 9.31278	        -4980.92	         3004.46	        -1976.46
     162	 1.99141	 9.32748	        -4977.82	         3001.55	        -1976.26
     163	 1.98835	 9.34695	        -4973.14	         2996.97	        -1976.17
     164	 1.98519	 9.36621	        -4968.36	         2992.22	        -1976.13
     165	 1.98253	 9.38264	        -4964.25	         2988.23	        -1976.02
     166	 1.98134	 9.39118	        -4962.38	         2986.45	        -1975.93
     167	 1.98216	 9.38885	        -4963.71	         2987.68	        -1976.03
     168	 1.98413	 9.38064	        -4966.82	         2990.64	        -1976.17
     169	 1.98586	 9.37414	        -4969.47	         2993.24	        -1976.23
     170	  1.9866	 9.37296	         -4970.6	         2994.33	        -1976.27
     171	  1.9859	 9.37892	        -4969.64	         2993.29	        -1976.35
     172	 1.98326	 9.39457	        -4965.72	         2989.33	         -1976.4
     173	 1.97852	 9.42058	        -4958.58	         2982.22	        -1976.36
     174	 1.97231	 9.45349	         -4949.2	          2972.9	        -1976.31
     175	  1.9653	 9.48948	        -4938.74	         2962.39	        -1976.35
     176	 1.95759	  9.5284	        -4927.18	         2950.82	        -1976.36
     177	 1.94946	  9.5689	        -4914.81	         2938.63	        -1976.18
     178	 1.94286	 9.60064	        -4904.56	         2928.73	        -1975.83
     179	 1.94103	 9.60609	        -4901.56	         2925.98	        -1975.59
     180	 1.94605	 9.57381	        -4909.19	         2933.51	        -1975.68
     181	 1.95693	 9.50913	        -4925.88	         2949.84	        -1976.04
     182	 1.97024	 9.43067	        -4946.17	          2969.8	        -1976.37
     183	 1.98264	 9.35658	        -4964.84	         2988.41	        -1976.44
     184	 1.99295	 9.29339	        -4980.19	         3003.86	        -1976.33
     185	 2.00152	 9.23905	        -4993.01	         3016.72	        -1976.28
     186	 2.00863	 9.19251	        -5003.66	         3027.38	        -1976.28
     187	 2.01434	 9.15373	        -5012.15	         3035.95	         -1976.2
     188	 2.01917	  9.1197	        -5019.32	         3043.19	        -1976.13
     189	 2.02377	 9.08695	        -5026.19	         3050.09	         -1976.1
     190	 2.02866	 9.05315	        -5033.46	         3057.42	        -1976.04
     191	 2.03433	 9.01577	        -5041.98	         3065.94	        -1976.04
     192	 2.04058	 8.97604	        -5051.52	         3075.31	        -1976.21
     193	 2.04568	 8.94339	        -5059.44	         3082.96	        -1976.48
     194	 2.04697	  8.9322	         -5061.6	          3084.9	         -1976.7
     195	 2.04235	 8.95374	        -5054.71	         3077.97	        -1976.74
     196	 2.03164	 9.00895	        -5038.43	          3061.9	        -1976.53
     197	 2.01729	 9.08479	        -5016.45	         3040.38	        -1976.07
     198	 2.00409	 9.15571	        -4996.14	         3020.58	        -1975.56
     199	   1.997	 9.19491	        -4985.25	         3009.94	        -1975.31
     200	 1.99848	 9.18938	        -4987.57	         3012.17	         -1975.4
     201	 2.00727	 9.14575	        -5001.19	         3025.35	        -1975.84
     202	 2.01858	 9.08928	        -5018.82	         3042.31	        -1976.51
     203	 2.02567	 9.05598	        -5030.03	         3052.94	        -1977.09
     204	 2.02303	 9.07524	        -5026.23	         3048.99	        -1977.24
     205	 2.00965	 9.15267	        -5005.75	         3028.91	        -1976.84
     206	 1.98996	 9.26452	        -4975.49	         2999.38	        -1976.11
     207	 1.97154	 9.36985	         -4947.3	         2971.75	        -1975.55
     208	 1.96045	 9.43588	        -4930.58	         2955.12	        -1975.47
     209	 1.95838	 9.45363	         -4927.7	         2952.01	        -1975.69
     210	 1.96363	 9.43209	        -4935.86	         2959.89	        -1975.98
     211	 1.97326	  9.3866	         -4950.6	         2974.33	        -1976.27
     212	  1.9839	 9.33485	        -4966.87	         2990.28	        -1976.59
     213	 1.99208	 9.29545	        -4979.37	         3002.56	        -1976.81
     214	 1.99538	 9.28155	        -4984.33	         3007.51	        -1976.82
     215	 1.99345	  9.2948	        -4981.27	         3004.61	        -1976.66
     216	 1.98786	 9.32679	        -4972.63	         2996.23	         -1976.4
     217	 1.98133	 9.36314	        -4962.53	         2986.43	        -1976.09
     218	 1.97684	 9.38773	        -4955.62	         2979.69	        -1975.93
     219	   1.976	 9.39148	         -4954.5	         2978.44	        -1976.06
     220	 1.97786	  9.3793	         -4957.6	         2981.23	        -1976.37
     221	 1.97988	 9.36469	        -4960.85	         2984.26	        -1976.59
     222	 1.98036	 9.35684	        -4961.49	         2984.98	        -1976.51
     223	 1.98021	 9.35124	        -4960.93	         2984.75	        -1976.18
     224	 1.98232	 9.33256	        -4963.87	         2987.92	        -1975.95
     225	 1.98853	 9.29128	        -4973.33	         2997.24	        -1976.09
     226	 1.99744	 9.23582	        -4987.03	         3010.61	        -1976.42
     227	 2.00568	 9.18499	        -4999.64	         3022.96	        -1976.68
     228	 2.01039	 9.15437	        -5006.77	         3030.02	        -1976.75
     229	 2.01046	 9.14997	        -5006.82	         3030.13	        -1976.69
     230	 2.00631	  9.1694	        -5000.48	         3023.91	        -1976.57
     231	 1.99921	 9.20561	        -4989.66	         3013.25	        -1976.42
     232	 1.99077	  9.2492	        -4976.87	         3000.59	        -1976.28
     233	 1.98251	 9.29127	        -4964.41	          2988.2	         -1976.2
     234	 1.97563	 9.32495	        -4953.98	         2977.89	        -1976.09
     235	 1.97165	 9.34204	        -4947.79	         2971.91	        -1975.88
     236	 1.97251	 9.33193	        -4948.95	          2973.2	        -1975.75
     237	 1.97935	 9.28876	         -4959.3	         2983.47	        -1975.84
     238	 1.99111	 9.21877	        -4977.25	         3001.11	        -1976.14
     239	 2.00455	 9.13981	        -4997.81	         3021.27	        -1976.54
     240	  2.0156	 9.07415	        -5014.67	         3037.84	        -1976.82
     241	 2.02133	 9.03797	        -5023.25	         3046.44	        -1976.81
     242	 2.02166	 9.03209	        -5023.45	         3046.94	        -1976.52
     243	 2.01909	 9.04315	        -5019.28	         3043.08	         -1976.2
     244	  2.0166	 9.05531	        -5015.37	         3039.33	        -1976.04
     245	  2.0158	  9.0598	        -5014.19	         3038.14	        -1976.04
     246	 2.01663	 9.05669	        -5015.56	         3039.38	        -1976.18
     247	  2.0177	 9.05275	        -5017.32	         3040.99	        -1976.33
     248	 2.01745	 9.05589	        -5016.95	         3040.61	        -1976.34
     249	 2.01559	 9.06707	           -5014	         3037.83	        -1976.17
     250	  2.0135	  9.0783	        -5010.69	          3034.7	        -1975.99
     251	 2.01295	 9.07992	        -5009.79	         3033.87	        -1975.92
     252	 2.01495	 9.06673	        -5012.81	         3036.86	        -1975.94
     253	 2.01967	 9.03826	        -5019.93	         3043.94	        -1975.99
     254	 2.02683	 8.99641	        -5030.71	         3054.69	        -1976.02
     255	 2.03598	 8.94391	        -5044.53	         3068.41	        -1976.12
     256	   2.046	 8.88692	        -5059.75	         3083.45	         -1976.3
     257	 2.05512	 8.83555	        -5073.58	         3097.12	        -1976.46
     258	 2.06184	 8.79826	         -5083.7	          3107.2	         -1976.5
     259	 2.06573	 8.77769	        -5089.51	         3113.03	        -1976.48
     260	 2.06685	 8.77347	        -5091.23	         3114.72	        -1976.51
     261	 2.06502	 8.78656	        -5088.57	         3111.97	         -1976.6
     262	 2.05963	 8.81969	         -5080.6	         3103.88	        -1976.71
     263	    2.05	 8.87595	        -5066.16	         3089.43	        -1976.73
     264	 2.03662	 8.95257	        -5045.85	         3069.37	        -1976.48
     265	 2.02219	 9.03469	        -5023.84	         3047.72	        -1976.12
     266	 2.01032	 9.10261	        -5005.82	         3029.92	         -1975.9
     267	 2.00354	 9.14311	        -4995.57	         3019.75	        -1975.82
     268	 2.00249	 9.15237	        -4994.16	         3018.17	        -1975.99
     269	 2.00532	 9.14008	        -4998.74	         3022.43	        -1976.32
     270	 2.00879	 9.12396	        -5004.13	         3027.63	         -1976.5
     271	 2.01069	 9.11564	        -5006.97	         3030.48	        -1976.49
     272	 2.01063	 9.11726	        -5006.75	         3030.38	        -1976.37
     273	 2.00932	 9.12504	        -5004.68	         3028.42	        -1976.26
     274	 2.00757	 9.13468	        -5002.04	         3025.79	        -1976.24
     275	 2.00542	 9.14598	        -4998.85	         3022.57	        -1976.28
     276	 2.00264	 9.16022	        -4994.65	          3018.4	        -1976.25
     277	 1.99964	 9.17504	        -4990.07	          3013.9	        -1976.17
     278	 1.99742	 9.18516	        -4986.69	         3010.57	        -1976.12
     279	 1.99702	 9.18578	        -4986.05	         3009.97	        -1976.07
     280	 1.99904	 9.17419	        -4989.21	         3012.99	        -1976.21
     281	 2.00216	 9.15766	         -4994.3	         3017.68	        -1976.62
     282	 2.00324	  9.1546	        -4996.11	          3019.3	        -1976.81
     283	 2.00057	 9.17434	        -4992.03	         3015.29	        -1976.75
     284	 1.99452	  9.2143	        -4982.94	         3006.23	        -1976.72
     285	 1.98584	 9.27083	        -4969.82	         2993.19	        -1976.62
     286	 1.97579	 9.33657	        -4954.57	         2978.12	        -1976.44
     287	 1.96635	 9.39979	        -4940.29	         2963.96	        -1976.33
     288	 1.95914	 9.45089	        -4929.42	         2953.16	        -1976.27
     289	 1.95543	 9.48266	        -4923.73	         2947.59	        -1976.14
     290	 1.95641	 9.48752	        -4925.22	         2949.06	        -1976.16
     291	 1.96166	 9.46661	        -4933.42	         2956.94	        -1976.49
     292	 1.96824	 9.43591	        -4943.54	         2966.79	        -1976.74
     293	 1.97342	 9.40983	        -4951.29	         2974.57	        -1976.72
     294	 1.97667	 9.39085	        -4956.06	         2979.44	        -1976.61
     295	 1.97851	 9.37655	        -4958.69	         2982.21	        -1976.48
     296	 1.97999	  9.3625	         -4960.7	         2984.43	        -1976.27
     297	 1.98255	 9.34165	        -4964.42	         2988.26	        -1976.16
     298	 1.98663	 9.31224	        -4970.69	         2994.38	        -1976.31
     299	 1.99056	 9.28412	        -4976.85	         3000.28	        -1976.57
     300	 1.99177	 9.27175	        -4978.78	          3002.1	        -1976.68
     301	 1.98897	  9.2823	        -4974.47	          2997.9	        -1976.58
     302	 1.98305	 9.31095	        -4965.35	         2989.01	        -1976.34
     303	 1.97617	 9.34569	        -4954.88	          2978.7	        -1976.18
     304	 1.97002	 9.37704	        -4945.66	         2969.47	        -1976.19
     305	 1.96493	 9.40272	         -4938.1	         2961.84	        -1976.26
     306	 1.96069	 9.42347	        -4931.75	         2955.47	        -1976.27
     307	 1.95754	 9.43758	        -4926.93	         2950.74	        -1976.19
     308	 1.95651	 9.43949	        -4925.26	          2949.2	        -1976.05
     309	 1.95893	  9.4223	        -4928.83	         2952.83	           -1976
     310	 1.96524	 9.38395	        -4938.41	          2962.3	        -1976.11
     311	  1.9745	 9.33026	        -4952.45	         2976.18	        -1976.27
     312	 1.98502	 9.27063	        -4968.39	         2991.97	        -1976.42
     313	 1.99503	 9.21472	        -4983.56	         3006.98	        -1976.58
     314	 2.00279	 9.17182	        -4995.34	         3018.63	        -1976.71
     315	 2.00683	 9.14941	        -5001.51	         3024.69	        -1976.82
     316	 2.00626	 9.15192	        -5000.62	         3023.82	         -1976.8
     317	  2.0016	 9.17636	        -4993.38	         3016.84	        -1976.53
     318	 1.99557	 9.20813	        -4983.94	          3007.8	        -1976.14
     319	 1.99172	  9.2279	        -4977.98	         3002.02	        -1975.97
     320	 1.99165	 9.22709	        -4978.03	         3001.92	        -1976.11
     321	 1.99423	 9.21248	        -4982.11	         3005.78	        -1976.32
     322	 1.99715	  9.1963	        -4986.69	         3010.17	        -1976.52
     323	 1.99819	 9.19026	        -4988.42	         3011.73	        -1976.69
     324	  1.9957	 9.20325	        -4984.71	         3007.99	        -1976.72
     325	 1.98948	 9.23612	        -4975.27	         2998.67	         -1976.6
     326	 1.98107	 9.28064	        -4962.42	         2986.05	        -1976.38
     327	  1.9732	 9.32232	        -4950.34	         2974.24	         -1976.1
     328	 1.96914	 9.34399	        -4944.01	         2968.15	        -1975.86
     329	  1.9714	  9.3323	        -4947.41	         2971.54	        -1975.87
     330	 1.97983	 9.28806	        -4960.41	         2984.18	        -1976.23
     331	 1.99098	 9.23013	        -4977.61	         3000.91	        -1976.69
     332	 2.00008	 9.18429	        -4991.54	         3014.56	        -1976.98
     333	 2.00369	  9.1686	        -4997.02	         3019.97	        -1977.05
     334	 2.00069	 9.18863	        -4992.38	         3015.47	        -1976.91
     335	 1.99244	 9.23732	        -4979.62	          3003.1	        -1976.52
     336	 1.98276	  9.2942	        -4964.65	         2988.58	        -1976.07
     337	 1.97582	 9.33623	        -4954.15	         2978.17	        -1975.98
     338	 1.97278	 9.35697	        -4949.83	         2973.61	        -1976.22
     339	 1.97171	 9.36681	        -4948.44	         2972.01	        -1976.43
     340	  1.9706	 9.37615	        -4946.78	         2970.33	        -1976.45
     341	  1.9689	 9.38718	        -4944.18	         2967.79	        -1976.39
     342	 1.96688	 9.39816	        -4941.15	         2964.77	        -1976.38
     343	 1.96472	 9.40824	         -4937.9	         2961.53	        -1976.37
     344	 1.96266	 9.41611	        -4934.75	         2958.43	        -1976.32
     345	 1.96123	 9.41872	        -4932.57	         2956.28	        -1976.29
     346	 1.96083	 9.41388	        -4931.98	         2955.69	        -1976.29
     347	 1.96174	 9.40071	         -4933.3	         2957.05	        -1976.25
     348	 1.96455	 9.37648	        -4937.42	         2961.27	        -1976.15
     349	 1.97017	 9.33701	        -4945.78	         2969.69	        -1976.08
     350	 1.97907	 9.28046	        -4959.15	         2983.04	        -1976.12
     351	  1.9905	 9.21124	         -4976.5	         3000.19	        -1976.31
     352	 2.00217	 9.14216	        -4994.28	         3017.69	        -1976.59
     353	 2.01115	 9.08926	        -5007.94	         3031.17	        -1976.77
     354	 2.01551	 9.06312	        -5014.47	         3037.71	        -1976.76
     355	 2.01524	 9.06355	        -5013.91	          3037.3	        -1976.61
     356	 2.01173	 9.08251	        -5008.51	         3032.03	        -1976.49
     357	 2.00649	 9.11121	        -5000.56	         3024.18	        -1976.39
     358	 2.00109	 9.14103	        -4992.22	         3016.08	        -1976.14
     359	 1.99819	 9.15747	        -4987.46	         3011.72	        -1975.74
     360	 2.00127	 9.14141	        -4991.86	         3016.35	        -1975.51
     361	 2.01206	 9.08368	        -5008.22	         3032.52	         -1975.7
     362	 2.02833	  8.9964	        -5033.16	         3056.93	        -1976.23
     363	 2.04451	 8.90966	        -5058.04	         3081.21	        -1976.83
     364	 2.05446	 8.85658	        -5073.29	         3096.13	        -1977.16
     365	 2.05462	  8.8563	        -5073.42	         3096.36	        -1977.05
     366	 2.04576	 8.90481	        -5059.67	         3083.07	         -1976.6
     367	 2.03212	 8.97947	         -5038.7	         3062.62	        -1976.09
     368	 2.01875	 9.05324	        -5018.35	         3042.56	        -1975.78
     369	 2.00893	 9.10827	        -5003.62	         3027.84	        -1975.78
     370	 2.00317	 9.14134	        -4995.19	          3019.2	           -1976
     371	 1.99986	  9.1603	        -4990.47	         3014.23	        -1976.24
     372	 1.99708	 9.17494	        -4986.39	         3010.06	        -1976.33
     373	 1.99431	   9.188	         -4982.1	         3005.91	         -1976.2
     374	 1.99299	 9.19214	        -4979.89	         3003.93	        -1975.96
     375	  1.9953	 9.17625	        -4983.28	         3007.39	        -1975.89
     376	 2.00184	 9.13763	        -4993.31	         3017.19	        -1976.12
     377	 2.01047	 9.08861	        -5006.56	         3030.14	        -1976.42
     378	 2.01826	  9.0456	        -5018.36	         3041.83	        -1976.53
     379	 2.02343	  9.0179	         -5026.2	         3049.59	        -1976.61
     380	 2.02472	 9.01221	        -5028.31	         3051.53	        -1976.78
     381	 2.02066	 9.03676	         -5022.3	         3045.44	        -1976.87
     382	 2.01069	 9.09465	        -5007.23	         3030.47	        -1976.75
     383	 1.99603	 9.17864	        -4985.04	         3008.49	        -1976.55
     384	 1.97898	 9.27585	        -4959.27	         2982.91	        -1976.36
     385	 1.96188	 9.37324	        -4933.42	         2957.26	        -1976.17
     386	   1.947	 9.45793	        -4910.96	         2934.94	        -1976.02
     387	 1.93613	 9.51964	        -4894.64	         2918.64	        -1976.01
     388	 1.92986	 9.55486	        -4885.35	         2909.23	        -1976.12
     389	  1.9278	 9.56609	        -4882.29	         2906.14	        -1976.15
     390	 1.93024	 9.55279	        -4885.77	         2909.79	        -1975.98
     391	 1.93835	  9.5086	        -4897.98	         2921.96	        -1976.01
     392	  1.9512	 9.43875	        -4917.66	         2941.24	        -1976.42
     393	 1.96472	 9.36593	        -4938.31	         2961.52	        -1976.79
     394	 1.97454	 9.31327	        -4953.26	         2976.25	           -1977
     395	 1.97785	 9.29547	        -4958.29	         2981.22	        -1977.07
     396	 1.97415	 9.31592	        -4952.48	         2975.66	        -1976.82
     397	 1.96622	 9.36031	        -4940.15	         2963.78	        -1976.37
     398	   1.958	 9.40619	        -4927.87	         2951.45	        -1976.43
     399	 1.95006	 9.45138	        -4916.06	         2939.52	        -1976.53
     400	 1.94211	 9.49759	        -4903.86	          2927.6	        -1976.26
     401	 1.93638	 9.53153	        -4895.01	         2919.01	           -1976
     402	 1.93518	 9.54044	         -4893.2	         2917.21	        -1975.98
     403	 1.93883	 9.52299	        -4898.75	         2922.69	        -1976.07
     404	 1.94642	 9.48417	        -4910.19	         2934.07	        -1976.12
     405	  1.9568	 9.42965	         -4925.9	         2949.64	        -1976.26
     406	 1.96812	 9.36901	        -4943.15	         2966.62	        -1976.53
     407	  1.9776	 9.31711	         -4957.6	         2980.84	        -1976.76
     408	 1.98323	 9.28516	        -4965.99	         2989.28	         -1976.7
     409	 1.98571	 9.26999	        -4969.37	         2993.01	        -1976.35
     410	 1.98824	 9.25496	        -4972.86	          2996.8	        -1976.06
     411	 1.99334	 9.22657	        -4980.64	         3004.45	        -1976.19
     412	 2.00008	 9.19046	        -4991.12	         3014.56	        -1976.56
     413	 2.00516	 9.16466	        -4998.98	         3022.18	         -1976.8
     414	   2.006	  9.1622	        -5000.31	         3023.44	        -1976.88
     415	 2.00155	 9.18766	        -4993.62	         3016.76	        -1976.86
     416	 1.99222	 9.23869	        -4979.35	         3002.77	        -1976.58
     417	  1.9808	 9.30011	        -4961.74	         2985.64	        -1976.09
     418	 1.97183	 9.34712	         -4947.9	         2972.19	        -1975.71
     419	 1.96885	 9.36061	        -4943.37	         2967.72	        -1975.66
     420	 1.97223	 9.33844	        -4948.71	         2972.79	        -1975.92
     421	 1.97934	   9.295	        -4959.66	         2983.45	        -1976.21
     422	 1.98709	 9.24745	        -4971.28	         2995.07	        -1976.21
     423	 1.99461	 9.20092	        -4982.35	         3006.36	        -1975.99
     424	 2.00299	  9.1501	         -4994.8	         3018.93	        -1975.87
     425	 2.01266	 9.09332	        -5009.43	         3033.43	           -1976
     426	 2.02215	 9.03938	        -5023.89	         3047.66	        -1976.22
     427	 2.02922	 9.00076	        -5034.62	         3058.26	        -1976.35
     428	 2.03254	 8.98464	        -5039.59	         3063.24	        -1976.35
     429	 2.03219	  8.9905	        -5038.97	         3062.72	        -1976.26
     430	 2.02924	  9.0124	        -5034.45	         3058.31	        -1976.14
     431	 2.02508	 9.04256	        -5028.17	         3052.06	        -1976.11
     432	 2.02041	 9.07643	        -5021.25	         3045.06	        -1976.19
     433	 2.01511	  9.1142	        -5013.38	         3037.11	        -1976.27
     434	 2.00906	 9.15587	         -5004.3	         3028.03	        -1976.27
     435	  2.0026	 9.19859	        -4994.63	         3018.34	        -1976.28
     436	 1.99602	 9.24017	        -4984.82	         3008.46	        -1976.35
     437	  1.9893	 9.28042	        -4974.74	         2998.39	        -1976.34
     438	 1.98309	 9.31605	        -4965.27	         2989.08	        -1976.19
     439	 1.97891	  9.3387	        -4958.92	          2982.8	        -1976.12
     440	 1.97731	 9.34509	        -4956.73	          2980.4	        -1976.33
     441	 1.97652	 9.34525	         -4955.8	         2979.22	        -1976.58
     442	 1.97441	 9.35116	        -4952.61	         2976.05	        -1976.56
     443	  1.9709	 9.36317	        -4947.15	         2970.79	        -1976.36
     444	 1.96791	  9.3717	        -4942.38	         2966.31	        -1976.08
     445	 1.96811	 9.36319	        -4942.49	         2966.61	        -1975.89
     446	 1.97304	 9.32944	        -4950.02	            2974	        -1976.02
     447	 1.98166	 9.27662	        -4963.16	         2986.94	        -1976.23
     448	 1.99186	 9.21589	         -4978.6	         3002.23	        -1976.37
     449	 2.00179	 9.15625	        -4993.69	         3017.13	        -1976.56
     450	 2.00961	 9.10747	        -5005.57	         3028.86	        -1976.71
     451	 2.01412	 9.07615	        -5012.28	         3035.62	        -1976.66
     452	 2.01603	  9.0589	        -5014.84	         3038.49	        -1976.35
     453	 2.01839	 9.03994	        -5017.97	         3042.03	        -1975.95
     454	 2.02488	 8.99977	        -5027.54	         3051.76	        -1975.78
     455	  2.0369	 8.93126	        -5045.79	         3069.79	           -1976
     456	  2.0521	 8.84718	        -5069.09	         3092.59	         -1976.5
     457	 2.06534	 8.77503	        -5089.44	         3112.45	        -1976.99
     458	 2.07174	 8.74121	        -5099.12	         3122.06	        -1977.06
     459	 2.06999	 8.75257	        -5096.16	         3119.42	        -1976.74
     460	 2.06259	 8.79524	        -5084.67	         3108.32	        -1976.34
     461	 2.05346	 8.84848	        -5070.66	         3094.63	        -1976.03
     462	 2.04603	 8.89432	         -5059.3	         3083.48	        -1975.82
     463	 2.04263	 8.92027	        -5054.14	         3078.38	        -1975.77
     464	 2.04369	  8.9236	        -5055.97	         3079.97	           -1976
     465	 2.04703	 8.91598	        -5061.31	         3084.98	        -1976.33
     466	 2.04938	 8.91481	        -5065.03	         3088.51	        -1976.52
     467	 2.04845	  8.9317	        -5063.72	         3087.11	        -1976.61
     468	 2.04314	 8.97199	        -5055.78	         3079.14	        -1976.64
     469	 2.03329	 9.03639	        -5040.93	         3064.38	        -1976.56
     470	 2.01995	 9.11924	        -5020.73	         3044.37	        -1976.36
     471	 2.00519	 9.20916	         -4998.4	         3022.22	        -1976.18
     472	 1.99119	 9.29429	        -4977.29	         3001.23	        -1976.06
     473	 1.97974	 9.36532	        -4959.99	         2984.04	        -1975.95
     474	 1.97253	 9.41317	        -4949.06	         2973.24	        -1975.82
     475	 1.97098	 9.42992	        -4946.79	         2970.92	        -1975.88
     476	 1.97471	 9.41726	        -4952.66	          2976.5	        -1976.17
     477	 1.98117	 9.38869	        -4962.65	         2986.19	        -1976.46
     478	 1.98754	 9.35927	        -4972.32	         2995.76	        -1976.57
     479	 1.99243	 9.33621	        -4979.65	         3003.08	        -1976.56
     480	 1.99538	 9.32165	        -4984.14	         3007.51	        -1976.63
     481	 1.99572	 9.31943	        -4984.74	         3008.02	        -1976.72
     482	 1.99278	  9.3334	         -4980.3	         3003.61	        -1976.69
     483	 1.98716	 9.36033	        -4971.67	         2995.18	        -1976.49
     484	 1.98111	 9.38816	        -4962.32	         2986.11	        -1976.22
     485	 1.97769	 9.40086	        -4956.92	         2980.97	        -1975.94
     486	 1.97973	 9.38372	        -4959.86	         2984.04	        -1975.82
     487	 1.98798	 9.33258	        -4972.52	         2996.41	        -1976.12
     488	 1.99938	 9.26431	        -4990.09	         3013.51	        -1976.58
     489	  2.0091	 9.20531	        -5004.93	          3028.1	        -1976.83
     490	 2.01381	 9.17344	        -5011.99	         3035.15	        -1976.84
     491	 2.01278	 9.17286	        -5010.22	         3033.61	        -1976.62
     492	 2.00777	 9.19469	        -5002.38	         3026.09	        -1976.29
     493	 2.00166	 9.22354	        -4993.02	         3016.92	        -1976.09
     494	 1.99652	 9.24832	        -4985.29	         3009.22	        -1976.07
     495	   1.993	 9.26549	        -4980.06	         3003.94	        -1976.12
     496	 1.99086	 9.27571	        -4976.97	         3000.74	        -1976.23
     497	 1.98914	 9.28335	        -4974.54	         2998.16	        -1976.39
     498	 1.98667	 9.29426	        -4970.86	         2994.44	        -1976.42
     499	 1.98341	 9.30838	        -4965.78	         2989.55	        -1976.23
     500	 1.98144	 9.31477	        -4962.45	          2986.6	        -1975.86
     501	 1.98423	 9.29484	        -4966.41	         2990.79	        -1975.62
     502	 1.99372	 9.23821	        -4980.85	         3005.02	        -1975.83
     503	 2.00776	 9.15682	        -5002.41	         3026.07	        -1976.33
     504	 2.02134	  9.0779	        -5023.23	         3046.45	        -1976.77
     505	 2.02998	   9.026	         -5036.3	         3059.42	        -1976.88
     506	 2.03238	 9.00868	        -5039.61	         3063.01	         -1976.6
     507	 2.03083	 9.01396	        -5036.89	         3060.69	         -1976.2
     508	 2.02882	 9.02311	        -5033.71	         3057.66	        -1976.05
     509	 2.02778	 9.02826	        -5032.29	         3056.11	        -1976.19
     510	 2.02667	  9.0349	         -5030.8	         3054.45	        -1976.35
     511	 2.02377	 9.05146	        -5026.56	         3050.09	        -1976.46
     512	 2.01778	 9.08402	        -5017.61	          3041.1	        -1976.51
     513	 2.00837	 9.13402	        -5003.39	         3026.99	         -1976.4
     514	 1.99689	 9.19422	        -4985.87	         3009.77	         -1976.1
     515	 1.98656	 9.24757	        -4969.97	         2994.27	         -1975.7
     516	 1.98148	 9.27232	         -4962.1	         2986.66	        -1975.44
     517	  1.9842	 9.25472	        -4966.34	         2990.73	         -1975.6
     518	 1.99331	 9.20229	        -4980.52	         3004.41	        -1976.11
     519	 2.00425	 9.13988	        -4997.39	         3020.82	        -1976.57
     520	 2.01269	 9.09087	        -5010.16	         3033.48	        -1976.68
     521	 2.01733	 9.06265	        -5016.91	         3040.44	        -1976.48
     522	 2.01955	 9.04777	         -5020.1	         3043.77	        -1976.33
     523	 2.02044	 9.04059	        -5021.56	          3045.1	        -1976.46
     524	 2.01908	 9.04654	        -5019.69	         3043.06	        -1976.64
     525	 2.01416	 9.07282	        -5012.29	         3035.68	        -1976.62
     526	 2.00609	 9.11716	        -4999.97	         3023.57	         -1976.4
     527	 1.99689	 9.16819	        -4986.06	         3009.77	        -1976.28
     528	 1.98781	 9.21875	        -4972.57	         2996.15	        -1976.42
     529	 1.97806	 9.27286	        -4958.09	         2981.52	        -1976.56
     530	 1.96665	 9.33516	        -4940.94	         2964.41	        -1976.53
     531	 1.95435	 9.40101	         -4922.2	         2945.96	        -1976.24
     532	 1.94441	 9.45299	        -4906.81	         2931.06	        -1975.75
     533	 1.94172	 9.46504	        -4902.39	         2927.01	        -1975.38
     534	 1.94983	 9.41814	         -4914.6	         2939.19	        -1975.41
     535	 1.96842	 9.31467	        -4942.87	         2967.08	         -1975.8
     536	 1.99344	 9.17675	        -4980.92	          3004.6	        -1976.32
     537	 2.01898	 9.03595	        -5019.76	         3042.91	        -1976.85
     538	 2.03918	  8.9239	        -5050.39	          3073.2	        -1977.19
     539	 2.05009	 8.86202	         -5066.8	         3089.58	        -1977.22
     540	 2.05113	 8.85411	        -5068.07	         3091.13	        -1976.94
     541	 2.04494	 8.88646	        -5058.38	         3081.85	        -1976.53
     542	  2.0355	 8.93794	        -5043.96	         3067.69	        -1976.27
     543	 2.02575	 8.99297	        -5029.21	         3053.06	        -1976.15
     544	 2.01707	 9.04371	        -5016.16	         3040.04	        -1976.12
     545	 2.00991	 9.08678	        -5005.45	          3029.3	        -1976.14
     546	 2.00407	 9.12226	        -4996.74	         3020.55	        -1976.19
     547	 1.99935	 9.15109	        -4989.58	         3013.46	        -1976.12
     548	 1.99649	 9.16922	        -4985.13	         3009.17	        -1975.96
     549	 1.99666	 9.17008	        -4985.41	         3009.43	        -1975.98
     550	 1.99962	 9.15534	           -4990	         3013.87	        -1976.13
     551	 2.00402	 9.13277	        -4996.65	         3020.46	        -1976.18
     552	 2.00895	 9.10675	        -5004.08	         3027.87	        -1976.21
     553	 2.01383	 9.08001	        -5011.51	         3035.18	        -1976.33
     554	 2.01757	 9.05815	        -5017.23	          3040.8	        -1976.43
     555	 2.01951	   9.045	        -5020.05	         3043.71	        -1976.34
     556	 2.02053	 9.03569	        -5021.39	         3045.24	        -1976.16
     557	 2.02226	 9.02128	        -5023.94	         3047.84	         -1976.1
     558	  2.0254	 8.99854	        -5028.67	         3052.54	        -1976.14
     559	 2.02979	 8.96895	        -5035.23	         3059.12	        -1976.11
     560	 2.03553	  8.9322	        -5043.83	         3067.74	        -1976.09
     561	 2.04251	 8.88899	        -5054.43	          3078.2	        -1976.24
     562	 2.04947	 8.84645	        -5065.07	         3088.65	        -1976.43
     563	 2.05499	 8.81286	        -5073.39	         3096.93	        -1976.47
     564	 2.05898	 8.78903	        -5079.27	         3102.91	        -1976.36
     565	 2.06238	 8.76955	         -5084.4	         3108.01	        -1976.39
     566	 2.06495	 8.75547	        -5088.53	         3111.86	        -1976.67
     567	 2.06462	 8.75828	         -5088.2	         3111.37	        -1976.83
     568	 2.06003	 8.78508	        -5081.27	         3104.48	        -1976.79
     569	 2.05154	 8.83341	        -5068.41	         3091.75	        -1976.66
     570	 2.04099	 8.89442	        -5052.22	         3075.93	        -1976.29
     571	 2.03218	 8.94837	        -5038.55	         3062.71	        -1975.84
     572	 2.02889	  8.9744	        -5033.65	         3057.77	        -1975.88
     573	 2.03062	 8.97498	        -5036.79	         3060.37	        -1976.42
     574	  2.0327	  8.9755	        -5040.34	         3063.49	        -1976.85
     575	 2.03113	 8.99709	        -5037.96	         3061.13	        -1976.83
     576	 2.02582	 9.03971	        -5029.68	         3053.17	        -1976.52
     577	 2.01937	 9.08909	        -5019.76	          3043.5	        -1976.26
     578	 2.01398	 9.13322	        -5011.71	         3035.41	         -1976.3
     579	 2.00938	 9.17315	        -5005.03	         3028.52	        -1976.51
     580	 2.00378	 9.21813	        -4996.71	         3020.11	         -1976.6
     581	 1.99629	 9.27198	        -4985.39	         3008.88	        -1976.51
     582	 1.98767	 9.32978	         -4972.3	         2995.94	        -1976.36
     583	 1.97962	 9.38218	        -4960.01	         2983.87	        -1976.14
     584	 1.97437	 9.41705	        -4951.95	         2975.99	        -1975.96
     585	 1.97379	 9.42432	        -4950.97	         2975.13	        -1975.84
     586	 1.97905	 9.39803	        -4958.77	         2983.02	        -1975.75
     587	 1.99057	 9.33588	        -4976.13	         3000.29	        -1975.84
     588	 2.00694	 9.24531	        -5001.04	         3024.86	        -1976.19
     589	 2.02452	 9.14636	         -5027.8	         3051.22	        -1976.58
     590	 2.03935	 9.06101	        -5050.16	         3073.46	         -1976.7
     591	 2.04992	 8.99806	        -5065.84	         3089.32	        -1976.52
     592	 2.05738	 8.95186	        -5076.87	         3100.51	        -1976.36
     593	  2.0628	 8.91715	        -5085.12	         3108.64	        -1976.48
     594	 2.06531	 8.89968	        -5089.07	          3112.4	        -1976.67
     595	 2.06352	 8.90767	        -5086.36	         3109.72	        -1976.64
     596	 2.05782	 8.93902	         -5077.6	         3101.17	        -1976.43
     597	 2.05012	 8.98295	        -5065.92	         3089.62	        -1976.31
     598	 2.04169	 9.03175	        -5053.36	         3076.97	        -1976.38
     599	  2.0323	 9.08596	        -5039.35	         3062.88	        -1976.46
     600	 2.02177	 9.14577	         -5023.4	          3047.1	         -1976.3
     601	 2.01183	 9.20112	        -5008.16	         3032.19	        -1975.98
     602	 2.00541	 9.23547	        -4998.35	         3022.56	        -1975.79
     603	 2.00424	 9.23948	        -4996.66	          3020.8	        -1975.86
     604	 2.00745	 9.21794	        -5001.74	         3025.62	        -1976.13
     605	 2.01232	 9.18593	        -5009.29	         3032.92	        -1976.37
     606	  2.0161	 9.15876	        -5015.07	         3038.59	        -1976.47
     607	 2.01727	 9.14527	        -5016.83	         3040.34	        -1976.49
     608	 2.01529	 9.14913	        -5013.85	         3037.38	        -1976.47
     609	 2.01037	 9.17032	         -5006.4	            3030	         -1976.4
     610	 2.00326	 9.20518	         -4995.7	         3019.33	        -1976.38
     611	 1.99454	 9.25053	        -4982.67	         3006.24	        -1976.42
     612	 1.98453	 9.30468	         -4967.6	         2991.23	        -1976.36
     613	  1.9745	 9.36044	        -4952.35	         2976.19	        -1976.16
     614	 1.96666	 9.40489	        -4940.48	         2964.43	        -1976.05
     615	  1.9622	 9.43085	        -4933.92	         2957.74	        -1976.18
     616	 1.96027	 9.44303	        -4931.15	         2954.84	        -1976.31
     617	 1.95943	   9.449	        -4929.96	         2953.58	        -1976.38
     618	 1.95837	 9.45528	        -4928.57	         2951.99	        -1976.58
     619	 1.95489	 9.47362	        -4923.65	         2946.77	        -1976.88
     620	 1.94658	 9.51747	        -4911.24	          2934.3	        -1976.94
     621	 1.93357	 9.58658	        -4891.34	          2914.8	        -1976.54
     622	 1.92016	 9.65814	         -4870.6	         2894.68	        -1975.92
     623	 1.91243	 9.69898	        -4858.67	         2883.08	        -1975.58
     624	 1.91407	 9.68931	        -4861.19	         2885.55	        -1975.64
     625	 1.92499	 9.62982	        -4877.77	         2901.93	        -1975.84
     626	 1.94286	 9.53237	        -4904.85	         2928.73	        -1976.12
     627	 1.96404	 9.41561	        -4937.02	         2960.51	        -1976.51
     628	 1.98404	 9.30343	        -4967.37	          2990.5	        -1976.87
     629	  1.9989	 9.21705	        -4989.78	         3012.79	        -1976.99
     630	 2.00715	 9.16464	        -5001.93	         3025.17	        -1976.76
     631	 2.01066	 9.13651	        -5006.79	         3030.42	        -1976.36
     632	 2.01286	  9.1141	        -5009.86	         3033.73	        -1976.13
     633	 2.01602	  9.0857	        -5014.56	         3038.47	        -1976.09
     634	 2.02065	 9.04911	        -5021.48	         3045.41	        -1976.07
     635	  2.0266	 9.00517	        -5030.41	         3054.34	        -1976.07
     636	 2.03347	 8.95632	        -5040.78	         3064.65	        -1976.13
     637	 2.04034	  8.9079	         -5051.2	         3074.95	        -1976.25
     638	 2.04578	 8.86789	        -5059.52	          3083.1	        -1976.42
     639	 2.04812	 8.84546	        -5063.16	         3086.62	        -1976.53
     640	 2.04645	 8.84599	        -5060.55	         3084.12	        -1976.43
     641	 2.04182	 8.86395	         -5053.3	         3077.17	        -1976.13
     642	 2.03697	 8.88449	        -5045.74	         3069.89	        -1975.85
     643	 2.03446	 8.89369	         -5041.9	         3066.13	        -1975.77
     644	 2.03502	 8.88728	        -5042.92	         3066.97	        -1975.95
     645	 2.03695	 8.87381	        -5046.17	         3069.87	         -1976.3
     646	  2.0372	 8.86944	        -5046.77	         3070.24	        -1976.54
     647	 2.03392	  8.8842	        -5041.73	         3065.32	        -1976.41
     648	 2.02836	  8.9114	        -5033.06	         3056.99	        -1976.07
     649	 2.02354	 8.93477	        -5025.64	         3049.75	        -1975.89
     650	 2.02117	 8.94527	        -5022.19	          3046.2	        -1975.99
     651	 2.02056	 8.94686	        -5021.48	         3045.29	        -1976.19
     652	 2.01987	 8.94933	        -5020.56	         3044.24	        -1976.31
     653	 2.01792	 8.95881	        -5017.58	         3041.32	        -1976.26
     654	 2.01542	 8.97185	        -5013.54	         3037.57	        -1975.97
     655	 2.01512	 8.97413	        -5012.74	         3037.12	        -1975.63
     656	 2.02011	 8.94904	        -5020.18	          3044.6	        -1975.58
     657	  2.0306	 8.89508	        -5036.33	         3060.34	        -1975.99
     658	 2.04274	 8.83288	        -5055.08	         3078.55	        -1976.53
     659	 2.05149	 8.78945	        -5068.44	         3091.67	        -1976.77
     660	 2.05434	  8.7778	        -5072.62	         3095.95	        -1976.67
     661	 2.05192	 8.79444	        -5068.78	         3092.32	        -1976.47
     662	 2.04615	 8.82933	        -5059.97	         3083.67	         -1976.3
     663	 2.03888	 8.87304	        -5048.99	         3072.76	        -1976.22
     664	  2.0312	 8.91993	         -5037.5	         3061.24	        -1976.26
     665	 2.02325	  8.9692	        -5025.71	         3049.32	        -1976.39
     666	 2.01432	 9.02445	        -5012.48	         3035.92	        -1976.56
     667	 2.00349	 9.09019	        -4996.31	         3019.67	        -1976.64
     668	 1.99057	 9.16676	        -4976.94	         3000.29	        -1976.65
     669	  1.9759	 9.25153	        -4954.99	         2978.28	        -1976.71
     670	 1.95973	 9.34305	        -4930.74	         2954.04	         -1976.7
     671	 1.94312	 9.43628	        -4905.57	         2929.13	        -1976.44
     672	 1.92903	 9.51559	        -4884.07	         2907.99	        -1976.08
     673	 1.92082	 9.56278	        -4871.62	         2895.66	        -1975.96
     674	 1.91963	 9.57178	        -4869.95	         2893.88	        -1976.07
     675	 1.92418	  9.5493	        -4876.99	         2900.71	        -1976.27
     676	 1.93205	  9.5077	           -4889	         2912.52	        -1976.48
     677	 1.94074	 9.45996	        -4902.17	         2925.56	        -1976.62
     678	 1.94831	 9.41601	         -4913.6	          2936.9	         -1976.7
     679	  1.9536	  9.3821	        -4921.48	         2944.84	        -1976.64
     680	 1.95685	 9.35717	        -4926.14	         2949.72	        -1976.43
     681	 1.95979	 9.33197	        -4930.29	         2954.13	        -1976.16
     682	 1.96503	  9.2932	        -4937.83	         2961.98	        -1975.84
     683	 1.97554	  9.2255	        -4953.34	         2977.76	        -1975.58
     684	 1.99347	 9.11786	        -4980.28	         3004.65	        -1975.63
     685	 2.01804	 8.97545	         -5017.5	         3041.49	        -1976.01
     686	 2.04551	 8.81995	        -5059.11	          3082.7	        -1976.41
     687	 2.07138	 8.67652	        -5098.29	         3121.51	        -1976.78
     688	  2.0911	 8.56975	        -5128.32	         3151.09	        -1977.23
     689	 2.10002	 8.52505	        -5142.01	         3164.46	        -1977.54
     690	 2.09524	 8.55816	        -5134.75	          3157.3	        -1977.45
     691	  2.0779	 8.66258	        -5108.29	          3131.3	        -1976.99
     692	 2.05266	 8.81234	        -5069.94	         3093.43	        -1976.51
     693	 2.02491	 8.97767	        -5027.92	          3051.8	        -1976.12
     694	 1.99913	 9.13339	        -4988.96	         3013.13	        -1975.83
     695	 1.97853	 9.26088	        -4957.91	         2982.24	        -1975.67
     696	 1.96473	 9.35024	        -4937.22	         2961.54	        -1975.68
     697	 1.95757	 9.40147	        -4926.61	         2950.79	        -1975.82
     698	 1.95541	 9.42293	        -4923.58	         2947.56	        -1976.02
     699	 1.95601	 9.42663	        -4924.67	         2948.46	        -1976.21
     700	 1.95719	 9.42428	         -4926.6	         2950.23	        -1976.37
     701	 1.95726	 9.42518	        -4926.76	         2950.33	        -1976.44
     702	 1.95565	 9.43272	        -4924.24	         2947.91	        -1976.33
     703	 1.95343	 9.44131	         -4920.7	         2944.58	        -1976.12
     704	 1.95272	 9.43974	        -4919.43	         2943.53	         -1975.9
     705	 1.95575	 9.41653	        -4923.84	         2948.07	        -1975.77
     706	 1.96376	 9.36513	        -4935.92	         2960.08	        -1975.84
     707	 1.97625	 9.28877	        -4954.84	         2978.82	        -1976.02
     708	  1.9917	 9.19649	        -4978.11	         3001.99	        -1976.13
     709	 2.00886	 9.09531	        -5003.92	         3027.74	        -1976.18
     710	  2.0268	 8.99072	        -5030.94	         3054.64	        -1976.31
     711	 2.04399	 8.89144	         -5056.9	         3080.43	        -1976.48
     712	 2.05847	 8.80853	        -5078.79	         3102.15	        -1976.64
     713	 2.06834	 8.75234	        -5093.74	         3116.94	         -1976.8
     714	 2.07179	 8.73234	        -5099.08	         3122.13	        -1976.95
     715	 2.06762	 8.75508	        -5092.83	         3115.87	        -1976.96
     716	 2.05629	 8.81808	        -5075.56	         3098.88	        -1976.69
     717	 2.04108	 8.90383	        -5052.25	         3076.07	        -1976.18
     718	 2.02695	 8.98507	        -5030.74	         3054.86	        -1975.88
     719	 2.01682	 9.04535	         -5015.7	         3039.67	        -1976.04
     720	 2.00966	 9.09019	        -5005.28	         3028.93	        -1976.35
     721	 2.00287	 9.13334	        -4995.17	         3018.74	        -1976.43
     722	 1.99565	 9.17848	        -4984.12	         3007.92	         -1976.2
     723	 1.98989	 9.21504	        -4975.18	         2999.28	         -1975.9
     724	 1.98822	 9.22874	        -4972.54	         2996.77	        -1975.77
     725	 1.99178	 9.21379	        -4977.97	         3002.11	        -1975.86
     726	 1.99942	 9.17669	        -4989.73	         3013.57	        -1976.16
     727	 2.00781	 9.13547	        -5002.77	         3026.16	        -1976.61
     728	 2.01242	 9.11487	        -5010.07	         3033.07	           -1977
     729	 2.00942	  9.1356	         -5005.7	         3028.57	        -1977.13
     730	 1.99768	 9.20399	        -4987.88	         3010.95	        -1976.93
     731	 1.97926	 9.30873	        -4959.87	         2983.33	        -1976.55
     732	 1.95818	 9.42779	        -4927.91	         2951.71	         -1976.2
     733	 1.93857	 9.53887	        -4898.21	         2922.29	        -1975.92
     734	 1.92383	 9.62317	        -4875.92	         2900.19	        -1975.72
     735	 1.91637	 9.66758	        -4864.64	         2888.99	        -1975.65
     736	 1.91703	 9.66732	        -4865.74	         2889.98	        -1975.76
     737	 1.92456	 9.62905	        -4877.37	         2901.27	        -1976.09
     738	 1.93562	  9.5712	        -4894.33	         2917.87	        -1976.46
     739	 1.94634	 9.51511	        -4910.67	         2933.95	        -1976.71
     740	 1.95381	 9.47664	        -4921.98	         2945.16	        -1976.83
     741	 1.95666	 9.46361	        -4926.21	         2949.43	        -1976.78
     742	 1.95516	 9.47469	        -4923.82	         2947.18	        -1976.64
     743	 1.95066	 9.50248	        -4916.94	         2940.43	        -1976.51
     744	 1.94473	 9.53828	        -4907.92	         2931.53	        -1976.39
     745	 1.93907	 9.57252	        -4899.26	         2923.05	        -1976.21
     746	 1.93589	 9.59304	        -4894.26	         2918.27	        -1975.99
     747	 1.93761	 9.58654	        -4896.67	         2920.86	        -1975.81
     748	 1.94581	 9.54432	        -4909.02	         2933.16	        -1975.86
     749	 1.95954	 9.47115	           -4930	         2953.75	        -1976.24
     750	 1.97484	 9.38837	         -4953.4	          2976.7	         -1976.7
     751	 1.98699	 9.32149	         -4971.8	         2994.93	        -1976.87
     752	 1.99379	  9.2826	        -4981.79	         3005.12	        -1976.67
     753	 1.99646	 9.26506	        -4985.47	         3009.13	        -1976.34
     754	 1.99768	 9.25461	        -4987.13	         3010.97	        -1976.17
     755	 1.99923	 9.24221	        -4989.42	         3013.28	        -1976.13
     756	 2.00178	 9.22465	         -4993.2	         3017.11	        -1976.09
     757	 2.00591	 9.19905	        -4999.35	          3023.3	        -1976.04
     758	 2.01189	 9.16392	        -5008.39	         3032.27	        -1976.12
     759	 2.01888	   9.124	        -5019.08	         3042.77	        -1976.31
     760	 2.02481	 9.09057	        -5028.22	         3051.66	        -1976.55
     761	 2.02723	 9.07681	        -5031.98	         3055.29	        -1976.69
     762	  2.0247	  9.0905	        -5028.12	         3051.49	        -1976.63
     763	 2.01765	 9.12922	        -5017.36	         3040.91	        -1976.45
     764	 2.00768	 9.18413	         -5002.3	         3025.97	        -1976.33
     765	 1.99606	 9.24818	         -4984.9	         3008.53	        -1976.37
     766	 1.98297	 9.31993	        -4965.36	          2988.9	        -1976.45
     767	 1.96844	 9.39902	        -4943.47	          2967.1	        -1976.37
     768	 1.95412	 9.47622	        -4921.64	         2945.61	        -1976.03
     769	 1.94355	 9.53169	        -4905.49	         2929.76	        -1975.72
     770	 1.93991	 9.54785	        -4899.96	         2924.31	        -1975.65
     771	 1.94426	 9.51912	        -4906.53	         2930.83	        -1975.71
     772	 1.95584	 9.44918	         -4924.1	         2948.19	         -1975.9
     773	 1.97224	 9.35041	        -4949.12	          2972.8	        -1976.33
     774	 1.98912	 9.24617	        -4974.94	         2998.12	        -1976.82
     775	 2.00202	 9.16153	        -4994.43	         3017.47	        -1976.96
     776	 2.00977	 9.10399	        -5005.73	          3029.1	        -1976.63
     777	  2.0152	 9.05916	        -5013.51	         3037.25	        -1976.27
     778	 2.02166	 9.01023	        -5023.08	         3046.92	        -1976.15
     779	 2.03035	 8.95192	        -5036.18	         3059.96	        -1976.22
     780	 2.04036	 8.88935	        -5051.43	         3074.98	        -1976.45
     781	 2.04924	 8.83575	        -5064.99	          3088.3	        -1976.69
     782	 2.05449	  8.8045	        -5072.94	         3096.17	        -1976.76
     783	 2.05522	 8.79994	        -5073.95	         3097.27	        -1976.68
     784	 2.05213	 8.81774	         -5069.2	         3092.63	        -1976.57
     785	 2.04647	 8.85073	        -5060.58	         3084.14	        -1976.44
     786	 2.03974	 8.89053	        -5050.32	         3074.04	        -1976.28
     787	 2.03342	 8.92845	         -5040.8	         3064.57	        -1976.23
     788	 2.02767	 8.96278	        -5032.37	         3055.94	        -1976.43
     789	  2.0207	   9.003	         -5022.1	          3045.5	         -1976.6
     790	 2.01097	 9.05746	        -5007.42	          3030.9	        -1976.52
     791	 1.99915	 9.12224	        -4989.46	         3013.16	         -1976.3
     792	  1.9876	 9.18486	        -4971.89	         2995.84	        -1976.06
     793	 1.97955	 9.22909	        -4959.51	         2983.76	        -1975.75
     794	 1.97811	 9.23802	        -4957.36	          2981.6	        -1975.76
     795	 1.98326	 9.21131	        -4965.54	         2989.33	        -1976.21
     796	 1.99116	  9.1703	        -4977.73	         3001.17	        -1976.56
     797	 1.99791	 9.13528	        -4987.99	         3011.31	        -1976.68
     798	 2.00158	 9.11617	        -4993.51	         3016.82	        -1976.69
     799	 2.00173	 9.11551	        -4993.66	         3017.04	        -1976.62
     800	 1.99884	 9.13077	        -4989.24	          3012.7	        -1976.54
     801	 1.99386	 9.15728	        -4981.62	         3005.22	         -1976.4
     802	 1.98855	  9.1864	        -4973.37	         2997.26	        -1976.11
     803	 1.98564	 9.20378	        -4968.79	          2992.9	         -1975.9
     804	 1.98699	 9.19957	        -4970.87	         2994.92	        -1975.96
     805	 1.99207	 9.17687	        -4978.71	         3002.54	        -1976.16
     806	 1.99868	  9.1471	        -4988.89	         3012.47	        -1976.42
     807	 2.00414	 9.12424	        -4997.26	         3020.65	         -1976.6
     808	 2.00665	 9.11779	           -5001	         3024.41	        -1976.59
     809	 2.00614	  9.1277	        -5000.16	         3023.65	        -1976.52
     810	 2.00321	 9.15023	        -4995.84	         3019.26	        -1976.58
     811	 1.99757	 9.18657	        -4987.56	         3010.79	        -1976.76
     812	 1.98805	  9.2423	        -4973.42	         2996.52	         -1976.9
     813	 1.97415	 9.31939	        -4952.49	         2975.67	        -1976.83
     814	 1.95751	 9.40838	        -4927.18	          2950.7	        -1976.48
     815	 1.94264	 9.48534	        -4904.25	         2928.41	        -1975.85
     816	 1.93622	 9.51499	         -4894.1	         2918.76	        -1975.34
     817	 1.94262	 9.47304	        -4904.02	         2928.37	        -1975.65
     818	 1.95917	 9.37525	        -4929.51	          2953.2	        -1976.32
     819	 1.97932	 9.25802	        -4960.08	         2983.43	        -1976.65
     820	 1.99836	 9.14675	        -4988.72	         3011.98	        -1976.74
     821	 2.01413	 9.05385	        -5012.35	         3035.63	        -1976.72
     822	 2.02579	 8.98487	        -5029.84	         3053.13	         -1976.7
     823	 2.03284	 8.94332	        -5040.44	          3063.7	        -1976.74
     824	 2.03459	 8.93324	        -5043.11	         3066.32	        -1976.79
     825	 2.03057	 8.95709	        -5037.05	          3060.3	        -1976.75
     826	 2.02119	 9.01248	        -5022.83	         3046.23	         -1976.6
     827	 2.00821	 9.08977	        -5003.03	         3026.75	        -1976.28
     828	 1.99484	 9.17135	         -4982.6	         3006.69	        -1975.91
     829	 1.98473	 9.23698	        -4967.24	         2991.54	        -1975.69
     830	 1.98016	 9.27401	        -4960.42	         2984.68	        -1975.73
     831	 1.98102	 9.28253	        -4961.91	         2985.97	        -1975.94
     832	 1.98547	 9.27196	        -4968.83	         2992.64	        -1976.18
     833	 1.99116	 9.25452	        -4977.53	         3001.18	        -1976.35
     834	 1.99627	  9.2398	        -4985.25	         3008.84	        -1976.41
     835	 1.99986	 9.23269	        -4990.64	         3014.23	        -1976.41
     836	 2.00162	 9.23487	         -4993.3	         3016.87	        -1976.43
     837	 2.00118	 9.24815	        -4992.71	         3016.21	        -1976.49
     838	 1.99795	 9.27543	        -4987.93	         3011.37	        -1976.56
     839	 1.99157	 9.31859	        -4978.27	          3001.8	        -1976.47
     840	  1.9833	 9.37101	        -4965.52	         2989.39	        -1976.13
     841	 1.97612	 9.41597	        -4954.54	         2978.62	        -1975.92
     842	   1.972	 9.44224	        -4948.49	         2972.44	        -1976.05
     843	 1.97037	 9.45327	        -4946.17	         2969.99	        -1976.18
     844	 1.97023	 9.45411	        -4945.95	         2969.79	        -1976.16
     845	 1.97145	 9.44465	        -4947.82	         2971.62	         -1976.2
     846	 1.97368	 9.42706	        -4951.16	         2974.96	        -1976.21
     847	 1.97696	 9.40167	         -4955.9	         2979.88	        -1976.03
     848	  1.9825	 9.36193	        -4964.08	          2988.2	        -1975.88
     849	 1.99128	  9.3031	        -4977.26	         3001.35	        -1975.91
     850	 2.00271	 9.22877	        -4994.58	          3018.5	        -1976.08
     851	 2.01469	 9.15064	        -5012.84	         3036.48	        -1976.35
     852	 2.02427	 9.08527	        -5027.42	         3050.84	        -1976.57
     853	 2.02926	 9.04529	        -5034.89	         3058.34	        -1976.55
     854	 2.02985	 9.03083	        -5035.54	         3059.21	        -1976.33
     855	 2.02796	 9.03181	         -5032.6	         3056.38	        -1976.22
     856	 2.02468	 9.04262	        -5027.84	         3051.47	        -1976.37
     857	 2.01915	 9.06819	        -5019.69	         3043.16	        -1976.53
     858	 2.01025	 9.11383	        -5006.35	         3029.82	        -1976.53
     859	 1.99851	 9.17631	        -4988.51	         3012.21	         -1976.3
     860	  1.9865	 9.24113	         -4970.2	          2994.2	        -1976.01
     861	 1.97721	 9.29113	        -4956.24	         2980.25	        -1975.99
     862	 1.97159	 9.32076	        -4947.94	         2971.82	        -1976.12
     863	 1.96926	 9.33215	        -4944.43	         2968.33	         -1976.1
     864	 1.97052	 9.32284	         -4946.3	         2970.22	        -1976.08
     865	 1.97542	 9.29201	         -4953.8	         2977.57	        -1976.23
     866	 1.98262	 9.24714	        -4964.77	         2988.38	        -1976.39
     867	 1.99049	 9.19727	        -4976.62	         3000.17	        -1976.45
     868	 1.99832	 9.14676	        -4988.27	         3011.91	        -1976.35
     869	 2.00706	  9.0919	        -5001.09	         3025.03	        -1976.06
     870	 2.01908	 9.02119	        -5018.89	         3043.06	        -1975.84
     871	 2.03563	 8.92831	        -5043.96	         3067.89	        -1976.07
     872	  2.0539	  8.8291	        -5071.93	         3095.29	        -1976.64
     873	  2.0681	  8.7549	        -5093.69	          3116.6	        -1977.09
     874	  2.0733	 8.73159	        -5101.64	         3124.39	        -1977.25
     875	 2.06771	 8.76829	        -5093.07	            3116	        -1977.07
     876	 2.05339	 8.85369	         -5071.1	         3094.53	        -1976.57
     877	 2.03556	 8.95947	         -5043.8	         3067.78	        -1976.02
     878	 2.01983	 9.05469	        -5019.96	         3044.19	        -1975.77
     879	 2.00917	 9.12284	        -5004.05	         3028.19	        -1975.86
     880	 2.00319	 9.16528	        -4995.31	         3019.23	        -1976.08
     881	 2.00001	 9.19148	        -4990.67	         3014.45	        -1976.22
     882	 1.99814	 9.20866	        -4987.86	         3011.65	        -1976.21
     883	 1.99758	 9.21671	        -4986.88	         3010.81	        -1976.07
     884	 1.99943	 9.20975	        -4989.55	         3013.58	        -1975.96
     885	 2.00453	 9.18337	        -4997.27	         3021.23	        -1976.03
     886	 2.01209	 9.14198	        -5008.86	         3032.57	        -1976.29
     887	 2.01971	 9.09868	        -5020.56	            3044	        -1976.55
     888	 2.02486	 9.06725	        -5028.42	         3051.73	        -1976.68
     889	 2.02637	 9.05414	        -5030.63	         3053.99	        -1976.64
     890	 2.02473	 9.05677	        -5028.03	         3051.53	        -1976.51
     891	 2.02168	 9.06631	        -5023.24	         3046.96	        -1976.27
     892	  2.0198	 9.06947	        -5020.17	         3044.14	        -1976.03
     893	  2.0214	 9.05386	        -5022.54	         3046.55	        -1975.99
     894	 2.02687	 9.01798	        -5030.87	         3054.75	        -1976.13
     895	  2.0348	 8.97006	        -5042.93	         3066.64	        -1976.28
     896	 2.04309	  8.9215	        -5055.59	         3079.08	        -1976.51
     897	 2.04925	 8.88635	        -5064.99	         3088.31	        -1976.68
     898	 2.05154	 8.87471	        -5068.37	         3091.75	        -1976.61
     899	    2.05	 8.88607	        -5066.02	         3089.44	        -1976.58
     900	  2.0446	 8.91978	        -5058.09	         3081.34	        -1976.75
     901	 2.03414	 8.98211	        -5042.49	         3065.66	        -1976.83
     902	 2.01828	 9.07435	        -5018.48	         3041.86	        -1976.62
     903	 1.99939	 9.18303	        -4989.72	         3013.52	         -1976.2
     904	 1.98178	 9.28451	        -4962.92	         2987.12	         -1975.8
     905	 1.96972	 9.35593	         -4944.6	         2969.02	        -1975.58
     906	 1.96563	 9.38393	        -4938.55	         2962.89	        -1975.66
     907	 1.96877	 9.37192	        -4943.68	          2967.6	        -1976.08
     908	 1.97538	 9.33998	        -4954.02	         2977.51	        -1976.51
     909	 1.98153	 9.30936	        -4963.34	         2986.73	         -1976.6
     910	 1.98578	 9.28751	        -4969.63	         2993.12	        -1976.51
     911	 1.98825	 9.27368	        -4973.34	         2996.81	        -1976.53
     912	 1.98862	 9.27029	         -4973.9	         2997.36	        -1976.53
     913	 1.98669	 9.27898	        -4970.91	         2994.48	        -1976.43
     914	 1.98325	 9.29568	        -4965.61	         2989.31	        -1976.29
     915	 1.97938	 9.31445	        -4959.73	          2983.5	        -1976.23
     916	 1.97575	 9.33163	        -4954.27	         2978.07	         -1976.2
     917	 1.97281	 9.34478	        -4949.82	         2973.65	        -1976.17
     918	 1.97104	 9.35109	        -4947.15	            2971	        -1976.15
     919	 1.97093	 9.34815	        -4946.97	         2970.83	        -1976.13
     920	 1.97283	 9.33432	        -4949.82	         2973.68	        -1976.13
     921	 1.97679	 9.30936	        -4955.86	         2979.63	        -1976.23
     922	  1.9818	 9.27859	         -4963.6	         2987.15	        -1976.46
     923	 1.98591	 9.25284	        -4969.87	          2993.3	        -1976.57
     924	 1.98801	 9.23814	        -4972.93	         2996.46	        -1976.47
     925	 1.98885	  9.2304	        -4974.02	         2997.72	         -1976.3
     926	 1.98996	 9.22168	        -4975.53	         2999.37	        -1976.15
     927	 1.99262	 9.20527	        -4979.44	         3003.37	        -1976.07
     928	 1.99732	 9.17855	        -4986.55	         3010.42	        -1976.13
     929	 2.00329	 9.14558	        -4995.67	         3019.38	        -1976.29
     930	 2.00872	 9.11572	        -5004.01	         3027.52	         -1976.5
     931	 2.01151	 9.09979	        -5008.34	         3031.71	        -1976.63
     932	 2.01053	 9.10389	        -5006.78	         3030.24	        -1976.54
     933	 2.00671	 9.12311	        -5000.78	         3024.51	        -1976.27
     934	 2.00256	 9.14395	        -4994.34	         3018.27	        -1976.07
     935	 2.00009	 9.15571	        -4990.64	         3014.58	        -1976.07
     936	 1.99969	 9.15689	        -4990.12	         3013.98	        -1976.14
     937	  2.0008	  9.1506	        -4991.83	         3015.64	        -1976.19
     938	 2.00298	 9.13917	        -4995.11	         3018.92	        -1976.19
     939	 2.00619	  9.1229	        -4999.89	         3023.73	        -1976.16
     940	 2.01056	 9.10096	        -5006.46	         3030.28	        -1976.18
     941	 2.01557	 9.07574	        -5014.17	          3037.8	        -1976.37
     942	 2.01915	 9.05813	        -5019.81	         3043.16	        -1976.64
     943	 2.01869	  9.0623	        -5019.18	         3042.48	         -1976.7
     944	 2.01336	 9.09256	           -5011	         3034.47	        -1976.53
     945	 2.00446	 9.14137	        -4997.48	         3021.14	        -1976.34
     946	  1.9939	 9.19865	        -4981.53	         3005.29	        -1976.24
     947	 1.98325	  9.2564	        -4965.41	         2989.32	        -1976.09
     948	 1.97433	  9.3052	        -4951.83	         2975.94	        -1975.89
     949	 1.96913	 9.33438	        -4943.95	         2968.14	        -1975.81
     950	 1.96842	 9.33988	           -4943	         2967.06	        -1975.93
     951	 1.97103	 9.32805	        -4947.13	         2970.98	        -1976.15
     952	  1.9748	 9.31043	        -4952.97	         2976.64	        -1976.33
     953	 1.97791	 9.29658	        -4957.72	          2981.3	        -1976.41
     954	 1.97951	 9.29059	        -4960.13	         2983.71	        -1976.42
     955	 1.97994	  9.2906	        -4960.65	         2984.35	         -1976.3
     956	  1.9808	 9.28792	        -4961.73	         2985.64	        -1976.09
     957	  1.9842	 9.27058	         -4966.8	         2990.74	        -1976.06
     958	 1.99075	 9.23519	        -4976.76	         3000.57	        -1976.19
     959	  1.9994	 9.18781	         -4989.8	         3013.54	        -1976.26
     960	 2.00898	 9.13455	        -5004.24	         3027.91	        -1976.33
     961	 2.01803	 9.08299	        -5018.07	         3041.49	        -1976.58
     962	 2.02398	 9.04751	         -5027.2	          3050.4	        -1976.79
     963	  2.0246	  9.0404	        -5028.11	         3051.34	        -1976.77
     964	 2.01985	 9.06165	        -5020.83	         3044.22	        -1976.61
     965	 2.01141	 9.10209	        -5007.96	         3031.55	        -1976.41
     966	 2.00191	 9.14806	        -4993.39	         3017.31	        -1976.08
     967	 1.99556	 9.17817	        -4983.32	         3007.78	        -1975.55
     968	 1.99733	 9.16539	        -4985.82	         3010.43	        -1975.39
     969	 2.00801	 9.10437	        -5002.51	         3026.46	        -1976.05
     970	 2.02149	 9.02876	        -5023.42	         3046.68	        -1976.74
     971	 2.03066	 8.97656	         -5037.3	         3060.43	        -1976.87
     972	 2.03303	 8.96033	        -5040.57	         3063.99	        -1976.59
     973	 2.03041	 8.97043	        -5036.31	         3060.06	        -1976.25
     974	 2.02571	 8.99163	        -5029.13	            3053	        -1976.13
     975	 2.02041	 9.01647	        -5021.24	         3045.06	        -1976.18
     976	 2.01499	 9.04337	        -5013.02	         3036.93	        -1976.09
     977	  2.0108	 9.06529	        -5006.55	         3030.64	        -1975.91
     978	 2.00941	 9.07312	        -5004.59	         3028.56	        -1976.03
     979	 2.00971	 9.07268	        -5005.49	         3029.01	        -1976.48
     980	 2.00787	 9.08477	        -5003.07	         3026.25	        -1976.82
     981	 2.00082	 9.12572	        -4992.45	         3015.66	        -1976.79
     982	 1.98881	 9.19366	        -4974.14	         2997.65	        -1976.49
     983	 1.97483	 9.27242	        -4952.82	         2976.68	        -1976.14
     984	 1.96266	 9.34178	        -4934.26	         2958.43	        -1975.83
     985	 1.95559	 9.38412	        -4923.47	         2947.82	        -1975.64
     986	 1.95537	 9.38946	        -4923.22	          2947.5	        -1975.72
     987	 1.96121	  9.3616	        -4932.32	         2956.25	        -1976.07
     988	 1.96976	 9.31818	        -4945.56	         2969.08	        -1976.49
     989	 1.97707	 9.28028	         -4956.8	         2980.05	        -1976.76
     990	  1.9805	 9.26178	        -4962.05	          2985.2	        -1976.86
     991	 1.97926	 9.26711	        -4960.11	         2983.34	        -1976.77
     992	 1.97441	 9.29081	        -4952.63	         2976.06	        -1976.58
     993	 1.96809	 9.32141	        -4942.98	         2966.58	         -1976.4
     994	 1.96251	 9.34748	        -4934.46	         2958.21	        -1976.25
     995	 1.95919	 9.36048	         -4929.5	         2953.23	        -1976.28
     996	 1.95819	 9.36018	        -4928.08	         2951.73	        -1976.35
     997	 1.95931	 9.34837	        -4929.57	          2953.4	        -1976.17
     998	 1.96412	 9.31638	        -4936.55	         2960.62	        -1975.93
     999	 1.97433	  9.2545	        -4951.98	         2975.93	        -1976.04
