    Step 	 temperature 	 pressure 	 Potential Energy 	 Kinetic Energy 	 Sum Energy

       0	 1.69457	 0.13643	        -166.379	          2547.7	         2381.32
       1	  1.6946	0.136425	        -166.415	         2547.74	         2381.32
       2	 1.69467	0.136411	        -166.524	         2547.85	         2381.32
       3	 1.69479	0.136389	        -166.706	         2548.03	         2381.32
       4	 1.69496	0.136357	        -166.962	         2548.28	         2381.32
       5	 1.69518	0.136315	        -167.292	         2548.61	         2381.32
       6	 1.69545	0.136265	        -167.698	         2549.02	         2381.32
       7	 1.69578	0.136204	        -168.181	          2549.5	         2381.32
       8	 1.69615	0.136134	        -168.742	         2550.06	         2381.32
       9	 1.69658	0.136055	        -169.384	         2550.71	         2381.32
      10	 1.69706	0.135965	        -170.107	         2551.43	         2381.32
      11	  1.6976	0.135865	        -170.915	         2552.24	         2381.32
      12	 1.69819	0.135754	        -171.809	         2553.13	         2381.32
      13	 1.69885	0.135633	        -172.793	         2554.12	         2381.32
      14	 1.69957	  0.1355	         -173.87	         2555.19	         2381.32
      15	 1.70035	0.135357	        -175.042	         2556.37	         2381.32
      16	  1.7012	0.135202	        -176.314	         2557.64	         2381.32
      17	 1.70212	0.135035	         -177.69	         2559.01	         2381.32
      18	 1.70311	0.134856	        -179.174	          2560.5	         2381.32
      19	 1.70417	0.134664	         -180.77	         2562.09	         2381.32
      20	 1.70531	0.134461	        -182.485	         2563.81	         2381.33
      21	 1.70654	0.134244	        -184.324	         2565.65	         2381.33
      22	 1.70785	0.134016	        -186.292	         2567.62	         2381.33
      23	 1.70925	0.133775	        -188.395	         2569.72	         2381.33
      24	 1.71075	0.133523	         -190.64	         2571.97	         2381.33
      25	 1.71234	0.133262	         -193.03	         2574.36	         2381.33
      26	 1.71404	0.132995	        -195.569	          2576.9	         2381.33
      27	 1.71583	0.132725	        -198.256	         2579.58	         2381.33
      28	 1.71771	0.132462	        -201.086	         2582.41	         2381.33
      29	 1.71968	0.132216	        -204.039	         2585.36	         2381.32
      30	 1.72171	0.132009	        -207.081	          2588.4	         2381.32
      31	 1.72374	0.131872	        -210.144	         2591.45	         2381.31
      32	 1.72571	0.131853	        -213.114	         2594.41	         2381.29
      33	  1.7275	0.132024	        -215.814	         2597.08	         2381.27
      34	 1.72894	0.132473	        -218.009	         2599.26	         2381.25
      35	 1.72992	0.133273	        -219.486	         2600.72	         2381.24
      36	 1.73048	0.134395	          -220.3	         2601.56	         2381.26
      37	 1.73107	0.135585	        -221.108	         2602.44	         2381.33
      38	  1.7324	0.136405	        -223.065	         2604.44	         2381.37
      39	 1.73483	 0.13663	        -226.773	         2608.08	         2381.31
      40	 1.73788	0.136546	        -231.449	         2612.66	         2381.21
      41	 1.74077	0.136631	        -235.811	            2617	         2381.19
      42	 1.74327	0.137021	        -239.497	         2620.75	         2381.25
      43	 1.74591	0.137404	        -243.366	         2624.71	         2381.34
      44	 1.74947	0.137326	        -248.671	         2630.04	         2381.37
      45	 1.75421	0.136642	        -255.843	         2637.16	         2381.32
      46	 1.75962	0.135681	        -264.049	         2645.27	         2381.22
      47	 1.76481	0.134985	        -271.896	         2653.05	         2381.16
      48	 1.76907	0.134975	        -278.316	         2659.45	         2381.13
      49	 1.77209	0.135842	        -282.846	         2663.98	         2381.13
      50	 1.77387	 0.13759	         -285.49	         2666.64	         2381.15
      51	 1.77459	0.140099	        -286.557	         2667.73	         2381.17
      52	 1.77459	0.143172	        -286.524	         2667.72	          2381.2
      53	 1.77417	0.146598	        -285.885	          2667.1	         2381.21
      54	 1.77359	0.150205	        -285.016	         2666.23	         2381.22
      55	 1.77303	0.153868	        -284.164	         2665.38	         2381.22
      56	 1.77261	0.157475	        -283.533	         2664.75	         2381.22
      57	 1.77247	0.160922	        -283.322	         2664.55	         2381.23
      58	 1.77273	0.164115	        -283.701	         2664.93	         2381.23
      59	 1.77345	0.166987	        -284.788	         2666.01	         2381.23
      60	 1.77468	0.169497	         -286.64	         2667.86	         2381.22
      61	 1.77641	0.171635	        -289.246	         2670.46	         2381.21
      62	 1.77856	0.173434	         -292.49	         2673.68	         2381.19
      63	 1.78098	0.174975	        -296.143	         2677.31	         2381.17
      64	  1.7835	0.176352	        -299.935	         2681.09	         2381.16
      65	 1.78601	0.177629	        -303.692	         2684.85	         2381.16
      66	 1.78852	0.178789	        -307.445	         2688.62	         2381.18
      67	 1.79118	0.179747	        -311.414	         2692.61	          2381.2
      68	 1.79417	0.180393	        -315.887	          2697.1	         2381.21
      69	 1.79762	0.180657	        -321.053	         2702.27	         2381.22
      70	 1.80151	0.180545	        -326.907	         2708.11	          2381.2
      71	 1.80573	0.180137	        -333.245	         2714.43	         2381.19
      72	 1.81006	0.179558	        -339.761	         2720.93	         2381.17
      73	 1.81432	0.178927	        -346.163	         2727.32	         2381.16
      74	 1.81841	0.178314	         -352.29	         2733.45	         2381.17
      75	 1.82233	0.177726	        -358.154	         2739.33	         2381.18
      76	 1.82616	0.177123	        -363.884	         2745.07	         2381.19
      77	 1.82999	0.176461	        -369.621	         2750.82	          2381.2
      78	 1.83387	0.175719	        -375.447	         2756.65	          2381.2
      79	 1.83782	0.174901	        -381.372	         2762.57	          2381.2
      80	 1.84181	0.174031	        -387.356	         2768.56	          2381.2
      81	 1.84579	0.173147	        -393.332	         2774.53	          2381.2
      82	  1.8497	0.172294	          -399.2	         2780.39	         2381.19
      83	 1.85347	0.171521	        -404.858	         2786.05	         2381.19
      84	 1.85708	0.170855	        -410.257	         2791.45	          2381.2
      85	 1.86055	0.170284	        -415.452	         2796.66	         2381.21
      86	 1.86398	0.169763	        -420.591	         2801.81	         2381.22
      87	 1.86743	0.169264	        -425.776	         2806.98	         2381.21
      88	  1.8708	0.168854	        -430.869	         2812.04	         2381.17
      89	 1.87379	0.168719	        -435.399	         2816.52	         2381.12
      90	 1.87599	0.169099	        -438.743	         2819.83	         2381.09
      91	 1.87715	0.170152	        -440.473	         2821.56	         2381.09
      92	 1.87733	0.171824	          -440.7	         2821.83	         2381.13
      93	 1.87702	0.173821	        -440.172	         2821.36	         2381.19
      94	 1.87689	 0.17573	        -439.934	         2821.17	         2381.24
      95	 1.87739	0.177266	          -440.7	         2821.93	         2381.23
      96	 1.87855	 0.17841	         -442.48	         2823.67	         2381.19
      97	 1.88004	 0.17935	        -444.758	         2825.91	         2381.15
      98	 1.88146	0.180314	        -446.913	         2828.03	         2381.12
      99	 1.88249	0.181478	        -448.479	         2829.58	          2381.1
     100	 1.88302	0.182914	        -449.261	         2830.37	         2381.11
     101	 1.88311	0.184574	        -449.375	          2830.5	         2381.12
     102	 1.88295	0.186337	        -449.125	         2830.26	         2381.14
     103	  1.8827	0.188096	         -448.76	         2829.89	         2381.13
     104	 1.88242	0.189815	        -448.341	         2829.47	         2381.12
     105	 1.88207	0.191489	        -447.826	         2828.94	         2381.12
     106	 1.88164	0.193112	        -447.181	         2828.29	         2381.11
     107	 1.88114	0.194648	        -446.437	         2827.56	         2381.12
     108	 1.88073	0.196003	        -445.787	         2826.93	         2381.15
     109	 1.88072	0.196971	        -445.722	         2826.92	          2381.2
     110	 1.88163	0.197242	        -447.035	         2828.29	         2381.25
     111	 1.88396	0.196527	        -450.499	         2831.78	         2381.28
     112	 1.88787	0.194733	        -456.387	         2837.64	         2381.25
     113	 1.89307	0.192051	        -464.248	         2845.45	          2381.2
     114	 1.89896	0.188868	         -473.14	         2854.29	         2381.15
     115	  1.9049	0.185596	        -482.075	         2863.18	         2381.11
     116	 1.91036	0.182565	        -490.288	         2871.37	         2381.09
     117	 1.91501	0.180004	        -497.274	         2878.35	         2381.08
     118	 1.91864	0.178061	        -502.732	          2883.8	         2381.07
     119	 1.92118	0.176807	        -506.528	         2887.61	         2381.08
     120	 1.92265	 0.17623	        -508.719	         2889.82	          2381.1
     121	 1.92324	0.176233	        -509.569	          2890.7	         2381.13
     122	 1.92322	0.176646	        -509.512	         2890.67	         2381.16
     123	 1.92292	0.177275	        -509.029	         2890.21	         2381.19
     124	 1.92258	0.177957	        -508.515	         2889.72	          2381.2
     125	 1.92241	0.178575	        -508.241	         2889.45	         2381.21
     126	 1.92251	0.179046	        -508.393	         2889.61	         2381.22
     127	 1.92299	0.179313	          -509.1	         2890.32	         2381.22
     128	 1.92384	0.179357	        -510.397	         2891.61	         2381.21
     129	 1.92502	0.179215	        -512.183	         2893.38	         2381.19
     130	 1.92638	0.178972	        -514.229	          2895.4	         2381.17
     131	 1.92773	0.178725	         -516.28	         2897.44	         2381.16
     132	 1.92898	0.178541	        -518.155	         2899.31	         2381.16
     133	 1.93004	0.178458	        -519.751	          2900.9	         2381.15
     134	 1.93083	0.178515	        -520.946	         2902.08	         2381.13
     135	 1.93125	 0.17876	        -521.586	         2902.71	         2381.13
     136	 1.93132	0.179178	        -521.664	         2902.82	         2381.15
     137	 1.93131	0.179597	        -521.598	         2902.81	         2381.21
     138	 1.93179	0.179685	        -522.246	         2903.52	         2381.27
     139	 1.93326	0.179126	        -524.444	         2905.74	         2381.29
     140	 1.93588	0.177846	        -528.404	         2909.67	         2381.26
     141	 1.93932	0.176053	        -533.605	         2914.82	         2381.21
     142	   1.943	0.174096	        -539.181	         2920.34	         2381.16
     143	 1.94639	0.172311	        -544.303	         2925.43	         2381.13
     144	 1.94906	0.170965	        -548.332	         2929.43	          2381.1
     145	 1.95071	0.170244	        -550.824	         2931.91	         2381.08
     146	 1.95118	0.170251	        -551.527	         2932.61	         2381.08
     147	 1.95046	0.170985	        -550.439	         2931.53	          2381.1
     148	  1.9488	0.172302	        -547.904	         2929.04	         2381.14
     149	 1.94669	0.173899	        -544.675	         2925.88	          2381.2
     150	 1.94483	0.175356	        -541.814	         2923.08	         2381.27
     151	  1.9439	0.176255	        -540.383	         2921.69	         2381.31
     152	 1.94431	0.176351	        -541.005	         2922.31	          2381.3
     153	   1.946	0.175679	        -543.584	         2924.84	         2381.26
     154	 1.94856	0.174491	        -547.469	         2928.68	         2381.22
     155	 1.95149	0.173094	        -551.894	         2933.08	         2381.18
     156	 1.95436	0.171751	        -556.222	         2937.37	         2381.15
     157	 1.95681	0.170686	        -559.928	         2941.05	         2381.13
     158	 1.95858	0.170077	        -562.592	          2943.7	         2381.11
     159	 1.95953	0.170016	        -564.009	         2945.13	         2381.12
     160	 1.95975	0.170458	        -564.324	         2945.47	         2381.15
     161	 1.95956	0.171236	        -563.998	         2945.17	         2381.18
     162	 1.95921	0.172182	        -563.481	         2944.65	         2381.17
     163	 1.95872	0.173288	        -562.783	         2943.91	         2381.13
     164	 1.95781	0.174707	        -561.451	         2942.55	          2381.1
     165	 1.95626	0.176561	        -559.116	         2940.22	         2381.11
     166	 1.95428	 0.17871	        -556.095	         2937.27	         2381.17
     167	 1.95254	0.180753	        -553.411	         2934.65	         2381.24
     168	 1.95164	0.182303	        -552.053	         2933.29	         2381.24
     169	 1.95169	0.183288	        -552.171	         2933.37	          2381.2
     170	 1.95235	0.183906	        -553.202	         2934.36	         2381.16
     171	 1.95323	0.184375	        -554.546	         2935.68	         2381.14
     172	 1.95409	0.184827	        -555.841	         2936.97	         2381.13
     173	 1.95483	0.185316	        -556.943	         2938.08	         2381.14
     174	 1.95548	0.185817	        -557.914	         2939.07	         2381.15
     175	 1.95617	0.186267	        -558.931	         2940.09	         2381.16
     176	  1.9569	 0.18665	        -560.045	         2941.19	         2381.14
     177	 1.95753	 0.18706	        -561.017	         2942.13	         2381.11
     178	 1.95776	 0.18767	          -561.4	         2942.49	         2381.09
     179	 1.95736	0.188627	        -560.802	         2941.88	         2381.08
     180	 1.95625	0.189963	        -559.124	         2940.22	         2381.09
     181	 1.95461	0.191568	        -556.632	         2937.76	         2381.13
     182	 1.95278	 0.19323	        -553.846	         2935.01	         2381.16
     183	 1.95115	0.194703	        -551.374	         2932.57	         2381.19
     184	 1.95009	0.195765	        -549.757	         2930.97	         2381.21
     185	  1.9498	0.196273	        -549.333	         2930.54	         2381.21
     186	 1.95032	0.196204	        -550.134	         2931.32	         2381.19
     187	 1.95154	0.195624	        -551.974	         2933.15	         2381.18
     188	 1.95342	0.194568	        -554.773	         2935.96	         2381.19
     189	 1.95609	0.192963	        -558.761	         2939.97	         2381.21
     190	 1.95968	0.190752	        -564.155	         2945.36	          2381.2
     191	 1.96398	0.188076	        -570.657	         2951.81	         2381.15
     192	 1.96845	0.185281	        -577.424	         2958.52	          2381.1
     193	 1.97244	0.182777	        -583.448	          2964.5	         2381.05
     194	 1.97541	0.180894	        -587.927	         2968.96	         2381.03
     195	 1.97709	0.179811	        -590.438	         2971.48	         2381.04
     196	 1.97745	0.179548	         -590.96	         2972.02	         2381.06
     197	 1.97672	0.179982	        -589.816	         2970.91	          2381.1
     198	 1.97522	0.180902	        -587.544	         2968.68	         2381.13
     199	 1.97335	0.182075	        -584.714	         2965.87	         2381.16
     200	  1.9714	0.183312	        -581.766	         2962.93	         2381.17
     201	 1.96954	0.184487	        -578.967	         2960.14	         2381.18
     202	 1.96792	0.185493	        -576.535	         2957.73	         2381.19
     203	 1.96677	0.186196	        -574.775	         2955.99	         2381.21
     204	  1.9663	0.186439	        -574.066	          2955.3	         2381.23
     205	 1.96669	0.186124	        -574.652	         2955.88	         2381.22
     206	 1.96787	0.185283	        -576.448	         2957.65	          2381.2
     207	  1.9696	0.184066	        -579.073	         2960.24	         2381.17
     208	 1.97159	0.182652	        -582.082	         2963.23	         2381.15
     209	 1.97363	0.181179	        -585.151	         2966.29	         2381.14
     210	 1.97556	0.179749	         -588.06	         2969.18	         2381.12
     211	 1.97723	0.178461	        -590.576	         2971.69	         2381.11
     212	 1.97853	0.177396	        -592.517	         2973.63	         2381.12
     213	 1.97956	0.176508	        -594.019	         2975.18	         2381.16
     214	 1.98066	0.175596	        -595.638	         2976.83	          2381.2
     215	 1.98219	0.174461	        -597.922	         2979.12	          2381.2
     216	 1.98415	0.173099	        -600.898	         2982.07	         2381.17
     217	 1.98633	0.171664	        -604.179	         2985.33	         2381.15
     218	 1.98851	0.170286	        -607.455	         2988.61	         2381.15
     219	 1.99063	0.169019	        -610.641	         2991.79	         2381.15
     220	 1.99255	0.167952	        -613.553	         2994.67	         2381.12
     221	 1.99395	0.167289	        -615.681	         2996.76	         2381.08
     222	 1.99448	0.167241	        -616.492	         2997.57	         2381.07
     223	 1.99406	0.167866	        -615.837	         2996.93	          2381.1
     224	 1.99283	0.169068	        -613.964	         2995.08	         2381.12
     225	   1.991	0.170712	        -611.208	         2992.34	         2381.13
     226	 1.98871	  0.1727	        -607.777	         2988.91	         2381.13
     227	 1.98605	0.174968	         -603.78	         2984.92	         2381.14
     228	 1.98309	0.177446	        -599.333	         2980.47	         2381.14
     229	 1.97995	0.180035	        -594.613	         2975.77	         2381.15
     230	  1.9768	 0.18261	        -589.874	         2971.04	         2381.17
     231	 1.97386	0.185018	        -585.441	         2966.63	         2381.18
     232	 1.97134	0.187103	        -581.657	         2962.85	          2381.2
     233	 1.96943	0.188741	        -578.785	         2959.99	          2381.2
     234	 1.96821	0.189862	        -576.958	         2958.16	          2381.2
     235	 1.96774	0.190427	        -576.245	         2957.45	         2381.21
     236	 1.96809	0.190394	        -576.753	         2957.98	         2381.22
     237	 1.96937	0.189701	         -578.66	          2959.9	         2381.24
     238	 1.97169	0.188302	        -582.136	         2963.38	         2381.24
     239	 1.97501	0.186238	        -587.147	         2968.36	         2381.22
     240	 1.97901	0.183726	        -593.207	         2974.36	         2381.15
     241	 1.98303	0.181177	        -599.316	         2980.39	         2381.08
     242	 1.98628	0.179082	         -604.25	         2985.27	         2381.01
     243	 1.98814	0.177823	        -607.053	         2988.05	         2380.99
     244	 1.98839	0.177533	        -607.401	         2988.42	         2381.02
     245	 1.98729	0.178061	        -605.698	         2986.78	         2381.08
     246	 1.98544	0.179047	        -602.863	         2984.01	         2381.14
     247	 1.98357	0.180062	        -599.988	         2981.19	          2381.2
     248	 1.98233	 0.18071	        -598.078	         2979.33	         2381.25
     249	 1.98223	0.180689	        -597.907	         2979.18	         2381.27
     250	 1.98345	0.179891	        -599.763	         2981.01	         2381.25
     251	 1.98572	0.178487	        -603.218	         2984.41	          2381.2
     252	 1.98843	0.176843	        -607.345	         2988.49	         2381.15
     253	 1.99101	0.175323	        -611.235	         2992.35	         2381.12
     254	 1.99305	0.174166	        -614.309	         2995.42	         2381.11
     255	  1.9944	0.173481	        -616.327	         2997.45	         2381.12
     256	 1.99507	 0.17327	        -617.306	         2998.44	         2381.14
     257	 1.99519	0.173454	        -617.461	         2998.62	         2381.16
     258	 1.99497	0.173905	        -617.123	          2998.3	         2381.18
     259	 1.99459	0.174515	        -616.547	         2997.72	         2381.17
     260	 1.99406	0.175259	         -615.77	         2996.93	         2381.16
     261	 1.99332	0.176165	        -614.676	         2995.83	         2381.15
     262	  1.9924	0.177214	        -613.274	         2994.44	         2381.17
     263	 1.99152	 0.17826	        -611.922	         2993.12	          2381.2
     264	 1.99109	0.179064	        -611.243	         2992.47	         2381.23
     265	 1.99138	0.179454	        -611.691	         2992.91	         2381.22
     266	  1.9923	0.179489	        -613.122	         2994.29	         2381.17
     267	 1.99342	0.179428	        -614.857	         2995.97	         2381.11
     268	 1.99419	0.179592	        -616.065	         2997.13	         2381.07
     269	 1.99421	0.180224	        -616.109	         2997.16	         2381.05
     270	 1.99333	0.181408	        -614.765	         2995.83	         2381.06
     271	 1.99173	0.183025	        -612.333	         2993.44	         2381.11
     272	  1.9899	0.184797	         -609.53	         2990.68	         2381.15
     273	 1.98829	0.186429	        -607.111	         2988.28	         2381.17
     274	 1.98715	0.187782	        -605.405	         2986.56	         2381.15
     275	 1.98637	0.188898	        -604.258	         2985.39	         2381.13
     276	 1.98582	 0.18985	        -603.437	         2984.57	         2381.13
     277	 1.98555	0.190604	        -603.016	         2984.17	         2381.15
     278	 1.98569	0.191068	         -603.23	         2984.38	         2381.15
     279	 1.98616	0.191284	        -603.972	         2985.08	         2381.11
     280	 1.98658	0.191475	        -604.648	         2985.71	         2381.06
     281	 1.98652	0.191898	        -604.583	         2985.62	         2381.04
     282	 1.98574	0.192689	        -603.415	         2984.45	         2381.04
     283	 1.98427	0.193827	        -601.186	         2982.25	         2381.07
     284	 1.98239	0.195144	        -598.315	         2979.43	         2381.11
     285	 1.98058	0.196346	        -595.546	         2976.71	         2381.17
     286	 1.97941	0.197095	        -593.749	         2974.96	         2381.21
     287	 1.97927	0.197154	        -593.533	         2974.74	         2381.21
     288	 1.98014	0.196526	        -594.883	         2976.04	         2381.16
     289	 1.98159	0.195468	        -597.124	         2978.22	         2381.09
     290	 1.98298	0.194353	        -599.274	         2980.32	         2381.04
     291	 1.98386	0.193469	        -600.588	         2981.62	         2381.04
     292	 1.98415	0.192851	        -600.987	         2982.07	         2381.08
     293	 1.98428	0.192265	        -601.114	         2982.26	         2381.15
     294	 1.98484	0.191365	        -601.908	          2983.1	         2381.19
     295	 1.98622	0.189932	        -603.971	         2985.16	         2381.19
     296	 1.98845	0.187965	        -607.333	         2988.51	         2381.18
     297	 1.99138	0.185577	         -611.74	         2992.91	         2381.17
     298	 1.99482	0.182902	        -616.914	         2998.07	         2381.15
     299	 1.99846	0.180137	        -622.415	         3003.53	         2381.11
     300	 2.00179	0.177606	        -627.465	         3008.52	         2381.06
     301	 2.00423	0.175677	        -631.156	         3012.18	         2381.03
     302	 2.00536	0.174604	         -632.85	         3013.88	         2381.03
     303	 2.00508	0.174447	        -632.408	         3013.46	         2381.05
     304	 2.00361	0.175078	        -630.159	         3011.25	          2381.1
     305	 2.00134	0.176252	        -626.708	         3007.84	         2381.14
     306	 1.99865	0.177716	        -622.661	         3003.82	         2381.16
     307	  1.9958	0.179303	        -618.383	         2999.54	         2381.16
     308	 1.99286	0.180937	        -613.979	         2995.13	         2381.15
     309	 1.98989	 0.18256	        -609.514	         2990.68	         2381.16
     310	  1.9871	 0.18403	         -605.29	         2986.49	          2381.2
     311	 1.98491	0.185084	         -601.95	          2983.2	         2381.25
     312	 1.98382	0.185418	        -600.282	         2981.56	         2381.28
     313	 1.98413	0.184855	        -600.764	         2982.03	         2381.27
     314	 1.98572	0.183484	        -603.196	         2984.42	         2381.22
     315	 1.98809	0.181618	        -606.804	         2987.97	         2381.16
     316	  1.9906	0.179647	        -610.621	         2991.74	         2381.12
     317	 1.99271	0.177915	        -613.814	          2994.9	         2381.09
     318	 1.99408	0.176641	        -615.866	         2996.95	         2381.09
     319	 1.99462	0.175889	        -616.658	         2997.77	         2381.11
     320	 1.99447	0.175586	        -616.409	         2997.54	         2381.14
     321	 1.99387	0.175599	        -615.485	         2996.64	         2381.16
     322	 1.99302	0.175804	          -614.2	         2995.37	         2381.17
     323	 1.99205	0.176122	        -612.745	         2993.92	         2381.17
     324	 1.99108	0.176484	        -611.273	         2992.46	         2381.19
     325	 1.99029	0.176781	        -610.057	         2991.27	         2381.21
     326	 1.98991	 0.17687	        -609.474	          2990.7	         2381.23
     327	 1.99009	0.176663	        -609.765	         2990.98	         2381.21
     328	  1.9907	0.176244	        -610.727	         2991.89	         2381.16
     329	 1.99128	0.175881	        -611.668	         2992.77	          2381.1
     330	 1.99129	0.175904	        -611.719	         2992.77	         2381.05
     331	 1.99033	0.176538	        -610.287	         2991.33	         2381.05
     332	 1.98841	0.177779	        -607.363	         2988.45	         2381.09
     333	   1.986	0.179347	        -603.664	         2984.84	         2381.17
     334	 1.98396	0.180732	        -600.527	         2981.78	         2381.25
     335	 1.98302	 0.18149	        -599.119	         2980.36	         2381.25
     336	 1.98314	0.181638	         -599.38	         2980.54	         2381.16
     337	 1.98357	 0.18162	        -600.118	          2981.2	         2381.08
     338	  1.9835	0.181914	        -600.064	          2981.1	         2381.03
     339	  1.9824	0.182818	        -598.429	         2979.44	         2381.01
     340	 1.98006	0.184439	        -594.906	         2975.93	         2381.02
     341	 1.97669	0.186649	        -589.793	         2970.87	         2381.08
     342	 1.97298	 0.18903	        -584.144	         2965.31	         2381.17
     343	 1.96982	0.191034	        -579.351	         2960.57	         2381.22
     344	  1.9678	0.192299	         -576.32	         2957.55	         2381.23
     345	 1.96709	0.192723	         -575.27	         2956.48	         2381.21
     346	 1.96757	0.192366	        -576.027	          2957.2	         2381.17
     347	 1.96885	0.191448	        -578.012	         2959.12	         2381.11
     348	 1.97035	0.190322	        -580.303	         2961.36	         2381.06
     349	 1.97163	0.189257	        -582.209	         2963.28	         2381.07
     350	 1.97276	 0.18822	        -583.859	         2964.99	         2381.13
     351	 1.97415	0.186978	        -585.928	         2967.07	         2381.14
     352	 1.97585	0.185507	        -588.523	         2969.61	         2381.09
     353	 1.97744	0.184078	        -590.951	         2972.01	         2381.06
     354	 1.97863	0.182894	        -592.706	         2973.78	         2381.07
     355	 1.97947	0.181916	        -593.935	         2975.04	          2381.1
     356	 1.98017	0.181031	         -594.98	         2976.09	         2381.11
     357	 1.98072	 0.18025	         -595.84	         2976.92	         2381.08
     358	 1.98087	0.179734	        -596.093	         2977.14	         2381.05
     359	 1.98032	 0.17965	        -595.282	         2976.32	         2381.04
     360	 1.97909	0.179996	        -593.401	         2974.48	         2381.08
     361	  1.9776	0.180525	        -591.089	         2972.23	         2381.14
     362	 1.97642	 0.18088	        -589.279	         2970.47	         2381.19
     363	 1.97599	0.180806	        -588.626	         2969.83	          2381.2
     364	 1.97643	0.180238	        -589.299	         2970.49	         2381.19
     365	 1.97758	 0.17927	        -591.044	          2972.2	         2381.16
     366	 1.97901	0.178145	        -593.238	         2974.36	         2381.12
     367	 1.98022	0.177167	        -595.088	         2976.18	         2381.09
     368	 1.98082	0.176572	        -595.987	         2977.07	         2381.08
     369	 1.98067	0.176434	        -595.742	         2976.85	          2381.1
     370	  1.9799	0.176676	         -594.55	         2975.69	         2381.14
     371	 1.97883	0.177107	        -592.897	         2974.08	         2381.19
     372	 1.97785	0.177484	        -591.395	         2972.62	         2381.22
     373	 1.97733	0.177589	        -590.589	         2971.83	         2381.24
     374	 1.97743	0.177309	        -590.754	         2971.99	         2381.24
     375	 1.97816	 0.17665	        -591.855	         2973.08	         2381.22
     376	 1.97939	0.175679	        -593.711	         2974.93	         2381.22
     377	 1.98106	0.174446	         -596.21	         2977.43	         2381.22
     378	 1.98316	 0.17296	         -599.36	         2980.58	         2381.22
     379	 1.98568	0.171249	        -603.145	         2984.36	         2381.22
     380	 1.98848	0.169407	        -607.371	         2988.56	         2381.19
     381	  1.9913	0.167613	        -611.631	         2992.79	         2381.16
     382	 1.99378	0.166094	        -615.388	         2996.52	         2381.13
     383	 1.99556	0.165078	        -618.087	         2999.19	          2381.1
     384	 1.99634	0.164755	        -619.266	         3000.35	         2381.08
     385	 1.99594	0.165223	        -618.672	         2999.75	         2381.08
     386	  1.9944	0.166465	        -616.333	         2997.43	          2381.1
     387	 1.99194	 0.16833	        -612.609	         2993.75	         2381.14
     388	 1.98901	0.170544	        -608.166	         2989.35	         2381.19
     389	 1.98615	0.172767	        -603.831	         2985.06	         2381.23
     390	 1.98383	0.174699	        -600.337	         2981.59	         2381.25
     391	 1.98234	 0.17616	        -598.102	         2979.35	         2381.25
     392	 1.98171	0.177117	         -597.17	          2978.4	         2381.23
     393	 1.98175	0.177667	        -597.268	         2978.47	          2381.2
     394	 1.98218	0.177978	        -597.942	         2979.11	         2381.17
     395	  1.9827	0.178226	        -598.734	         2979.88	         2381.15
     396	 1.98309	0.178533	        -599.336	         2980.48	         2381.14
     397	 1.98327	0.178956	        -599.609	         2980.74	         2381.14
     398	  1.9832	0.179518	        -599.507	         2980.64	         2381.13
     399	 1.98287	0.180227	        -599.012	         2980.14	         2381.13
     400	 1.98228	 0.18108	        -598.133	         2979.26	         2381.13
     401	 1.98148	0.182056	        -596.923	         2978.05	         2381.13
     402	 1.98051	 0.18312	        -595.469	          2976.6	         2381.13
     403	 1.97944	0.184237	        -593.863	         2974.99	         2381.13
     404	 1.97828	0.185388	        -592.143	         2973.26	         2381.12
     405	 1.97701	0.186588	        -590.253	         2971.36	          2381.1
     406	 1.97555	0.187877	        -588.071	         2969.16	         2381.09
     407	 1.97385	0.189271	        -585.518	         2966.61	         2381.09
     408	 1.97196	0.190729	        -582.679	         2963.78	          2381.1
     409	 1.97006	0.192139	        -579.807	         2960.93	         2381.12
     410	 1.96834	0.193371	        -577.219	         2958.35	         2381.13
     411	 1.96698	0.194316	        -575.163	         2956.31	         2381.15
     412	 1.96612	 0.19488	        -573.856	         2955.02	         2381.16
     413	 1.96594	0.194955	        -573.568	         2954.75	         2381.18
     414	 1.96657	0.194459	        -574.514	         2955.69	         2381.18
     415	 1.96793	 0.19343	        -576.593	         2957.74	         2381.14
     416	 1.96968	0.192075	        -579.265	         2960.36	         2381.09
     417	 1.97137	0.190661	        -581.823	          2962.9	         2381.07
     418	 1.97284	0.189299	         -583.98	         2965.09	         2381.11
     419	 1.97443	0.187791	        -586.296	         2967.49	         2381.19
     420	 1.97679	0.185772	        -589.783	         2971.02	         2381.24
     421	 1.98017	0.183096	        -594.879	         2976.09	         2381.21
     422	 1.98427	0.179978	        -601.074	         2982.24	         2381.16
     423	 1.98851	0.176781	        -607.471	          2988.6	         2381.13
     424	 1.99239	0.173823	        -613.314	         2994.43	         2381.11
     425	 1.99558	0.171328	        -618.096	          2999.2	         2381.11
     426	 1.99786	0.169438	        -621.519	         3002.63	         2381.11
     427	 1.99916	0.168219	        -623.464	         3004.58	         2381.12
     428	 1.99951	0.167664	        -623.977	         3005.11	         2381.13
     429	 1.99905	0.167704	        -623.256	         3004.41	         2381.16
     430	 1.99797	0.168216	         -621.62	          3002.8	         2381.18
     431	 1.99652	0.169056	         -619.43	         3000.63	          2381.2
     432	 1.99487	0.170112	         -616.95	         2998.14	         2381.19
     433	 1.99302	0.171358	        -614.204	         2995.37	         2381.17
     434	 1.99089	0.172837	        -611.017	         2992.17	         2381.15
     435	 1.98847	0.174536	        -607.361	         2988.54	         2381.18
     436	 1.98618	0.176205	        -603.853	         2985.11	         2381.25
     437	 1.98475	0.177391	        -601.663	         2982.96	          2381.3
     438	 1.98459	0.177836	        -601.471	         2982.73	         2381.26
     439	 1.98539	0.177736	         -602.74	         2983.92	         2381.18
     440	 1.98646	0.177501	        -604.386	         2985.52	         2381.14
     441	 1.98726	0.177441	        -605.608	         2986.73	         2381.12
     442	 1.98751	0.177724	        -605.995	          2987.1	         2381.11
     443	 1.98707	0.178432	        -605.347	         2986.45	          2381.1
     444	 1.98588	0.179604	        -603.563	         2984.66	          2381.1
     445	 1.98393	0.181234	         -600.63	         2981.73	          2381.1
     446	 1.98129	0.183265	        -596.665	         2977.78	         2381.12
     447	 1.97814	 0.18558	        -591.916	         2973.04	         2381.13
     448	 1.97465	 0.18804	         -586.68	         2967.81	         2381.13
     449	 1.97098	0.190528	        -581.181	         2962.31	         2381.13
     450	 1.96724	0.192949	         -575.57	          2956.7	         2381.13
     451	 1.96364	0.195159	        -570.133	          2951.3	         2381.16
     452	 1.96075	0.196814	        -565.706	         2946.96	         2381.26
     453	 1.95965	0.197283	        -563.943	         2945.31	         2381.37
     454	 1.96135	0.195951	         -566.51	         2947.87	         2381.36
     455	 1.96577	0.192889	        -573.279	         2954.49	         2381.21
     456	 1.97155	0.188936	        -582.091	         2963.17	         2381.08
     457	 1.97722	0.184994	        -590.651	         2971.67	         2381.02
     458	 1.98197	0.181562	        -597.764	         2978.79	         2381.03
     459	 1.98561	0.178777	        -603.198	         2984.26	         2381.06
     460	 1.98831	0.176583	        -607.199	          2988.3	          2381.1
     461	  1.9903	0.174861	        -610.157	         2991.29	         2381.13
     462	 1.99182	0.173494	        -612.424	         2993.58	         2381.15
     463	 1.99304	0.172399	        -614.244	         2995.41	         2381.16
     464	 1.99404	0.171537	        -615.732	          2996.9	         2381.16
     465	 1.99482	0.170906	        -616.906	         2998.07	         2381.16
     466	 1.99533	0.170536	        -617.687	         2998.84	         2381.15
     467	 1.99546	 0.17049	        -617.896	         2999.03	         2381.13
     468	 1.99507	0.170842	        -617.325	         2998.45	         2381.13
     469	 1.99414	0.171607	        -615.905	         2997.04	         2381.14
     470	 1.99279	0.172689	        -613.858	         2995.03	         2381.17
     471	 1.99135	0.173896	        -611.667	         2992.87	          2381.2
     472	 1.99013	0.175033	         -609.82	         2991.03	         2381.21
     473	 1.98921	0.176031	        -608.477	         2989.66	         2381.18
     474	 1.98841	0.176998	        -607.319	         2988.46	         2381.14
     475	 1.98733	0.178154	        -605.738	         2986.84	          2381.1
     476	 1.98564	0.179678	        -603.218	          2984.3	         2381.08
     477	 1.98326	0.181602	        -599.632	         2980.73	          2381.1
     478	 1.98043	0.183771	         -595.34	         2976.49	         2381.15
     479	 1.97764	0.185878	        -591.095	         2972.29	          2381.2
     480	 1.97543	0.187583	        -587.752	         2968.99	         2381.24
     481	  1.9742	0.188645	        -585.903	         2967.14	         2381.24
     482	 1.97403	0.189008	         -585.67	         2966.89	         2381.22
     483	 1.97474	 0.18878	        -586.757	         2967.95	         2381.19
     484	 1.97601	0.188143	        -588.688	         2969.86	         2381.17
     485	 1.97759	 0.18726	        -591.058	         2972.22	         2381.16
     486	 1.97932	0.186223	        -593.661	         2974.82	         2381.16
     487	 1.98119	0.185064	         -596.46	         2977.63	         2381.17
     488	 1.98321	0.183792	        -599.482	         2980.65	         2381.17
     489	 1.98531	0.182456	        -602.653	         2983.81	         2381.16
     490	 1.98731	0.181185	        -605.681	         2986.81	         2381.13
     491	 1.98889	 0.18018	        -608.074	         2989.17	         2381.09
     492	 1.98971	0.179643	        -609.327	          2990.4	         2381.07
     493	 1.98958	0.179698	        -609.133	         2990.21	         2381.08
     494	 1.98851	 0.18034	        -607.502	          2988.6	          2381.1
     495	  1.9867	0.181441	         -604.76	         2985.89	         2381.13
     496	 1.98452	0.182784	        -601.451	         2982.62	         2381.17
     497	 1.98233	 0.18414	         -598.15	         2979.34	         2381.19
     498	 1.98036	 0.18536	        -595.204	         2976.38	         2381.18
     499	 1.97862	0.186429	        -592.601	         2973.76	         2381.16
     500	 1.97697	0.187402	         -590.14	          2971.3	         2381.16
     501	 1.97545	0.188261	        -587.823	         2969.01	         2381.19
     502	 1.97434	 0.18882	        -586.109	         2967.35	         2381.24
     503	 1.97411	0.188798	        -585.726	            2967	         2381.27
     504	 1.97506	 0.18801	        -587.165	         2968.44	         2381.27
     505	 1.97717	0.186488	        -590.355	          2971.6	         2381.24
     506	 1.98012	0.184428	        -594.811	         2976.02	         2381.21
     507	 1.98354	0.182068	        -599.958	         2981.14	         2381.19
     508	 1.98707	0.179626	        -605.287	         2986.45	         2381.16
     509	 1.99044	0.177301	        -610.352	         2991.49	         2381.14
     510	 1.99335	0.175273	        -614.748	         2995.87	         2381.12
     511	 1.99559	  0.1737	        -618.117	         2999.22	          2381.1
     512	 1.99694	0.172709	        -620.164	         3001.25	         2381.09
     513	 1.99726	0.172394	        -620.658	         3001.73	         2381.07
     514	 1.99644	 0.17281	        -619.443	          3000.5	         2381.06
     515	 1.99451	0.173936	        -616.533	          2997.6	         2381.07
     516	 1.99169	0.175614	        -612.271	         2993.37	          2381.1
     517	 1.98852	0.177517	        -607.454	         2988.62	         2381.16
     518	 1.98586	 0.17913	        -603.376	         2984.63	         2381.25
     519	 1.98467	0.179867	         -601.56	         2982.84	         2381.28
     520	 1.98524	0.179526	        -602.512	          2983.7	         2381.18
     521	 1.98673	0.178614	        -604.864	         2985.94	         2381.07
     522	 1.98812	0.177751	        -606.954	         2988.02	         2381.07
     523	 1.98923	0.177043	        -608.541	         2989.68	         2381.14
     524	 1.99048	0.176227	        -610.383	         2991.56	         2381.17
     525	 1.99206	0.175206	        -612.795	         2993.93	         2381.14
     526	 1.99362	0.174212	        -615.182	         2996.27	         2381.09
     527	 1.99465	0.173554	        -616.745	         2997.81	         2381.07
     528	 1.99491	0.173376	        -617.114	          2998.2	         2381.09
     529	 1.99455	0.173597	        -616.524	         2997.66	         2381.14
     530	 1.99406	0.173933	        -615.735	         2996.93	          2381.2
     531	 1.99395	0.174087	        -615.553	         2996.76	         2381.21
     532	 1.99435	0.173984	        -616.181	         2997.36	         2381.18
     533	 1.99496	0.173803	        -617.146	         2998.28	         2381.14
     534	 1.99534	0.173809	        -617.753	         2998.85	          2381.1
     535	 1.99509	 0.17423	        -617.398	         2998.47	         2381.07
     536	 1.99391	0.175227	        -615.645	         2996.71	         2381.06
     537	 1.99173	0.176838	        -612.355	         2993.44	         2381.08
     538	 1.98879	0.178905	        -607.884	         2989.02	         2381.14
     539	 1.98568	0.181058	        -603.143	         2984.36	         2381.22
     540	 1.98315	0.182832	        -599.294	         2980.57	         2381.27
     541	 1.98176	0.183881	        -597.195	         2978.48	         2381.28
     542	 1.98164	0.184114	        -597.038	          2978.3	         2381.26
     543	  1.9826	0.183643	        -598.511	         2979.74	         2381.23
     544	 1.98437	 0.18264	        -601.179	         2982.39	         2381.21
     545	 1.98668	0.181262	        -604.673	         2985.87	         2381.19
     546	 1.98932	0.179664	        -608.651	         2989.83	         2381.17
     547	 1.99203	0.178017	        -612.731	         2993.88	         2381.15
     548	 1.99449	0.176518	        -616.461	         2997.58	         2381.12
     549	  1.9964	0.175373	        -619.358	         3000.45	         2381.09
     550	 1.99747	0.174766	         -620.98	         3002.05	         2381.07
     551	 1.99748	0.174825	        -621.003	         3002.05	         2381.05
     552	 1.99634	0.175597	        -619.296	         3000.35	         2381.05
     553	 1.99417	0.177007	        -616.017	          2997.1	         2381.08
     554	 1.99134	0.178826	        -611.715	         2992.85	         2381.14
     555	 1.98848	0.180667	        -607.346	         2988.55	         2381.21
     556	 1.98634	0.182062	        -604.079	         2985.35	         2381.27
     557	  1.9856	0.182606	        -602.944	         2984.25	          2381.3
     558	 1.98657	0.182112	        -604.416	          2985.7	         2381.28
     559	 1.98902	0.180707	         -608.16	         2989.37	         2381.21
     560	  1.9923	0.178786	        -613.156	          2994.3	         2381.14
     561	 1.99565	0.176811	        -618.229	         2999.32	         2381.09
     562	 1.99855	0.175106	        -622.571	         3003.66	         2381.09
     563	  2.0008	0.173784	         -625.94	         3007.05	         2381.11
     564	 2.00251	0.172806	        -628.485	         3009.61	         2381.13
     565	 2.00381	  0.1721	        -630.422	         3011.56	         2381.14
     566	 2.00476	0.171634	        -631.843	         3012.98	         2381.14
     567	  2.0054	0.171393	        -632.788	         3013.94	         2381.16
     568	 2.00585	 0.17131	        -633.429	         3014.61	         2381.18
     569	  2.0063	0.171263	        -634.089	         3015.29	          2381.2
     570	 2.00694	 0.17115	        -635.047	         3016.26	         2381.21
     571	 2.00781	0.170955	        -636.352	         3017.55	          2381.2
     572	 2.00876	0.170758	        -637.803	         3018.98	         2381.18
     573	 2.00959	 0.17069	        -639.067	         3020.22	         2381.15
     574	 2.01007	 0.17088	        -639.809	         3020.95	         2381.14
     575	 2.01008	 0.17141	        -639.818	         3020.96	         2381.14
     576	 2.00962	0.172267	        -639.118	         3020.27	         2381.16
     577	 2.00891	0.173334	        -638.018	          3019.2	         2381.18
     578	  2.0082	0.174443	        -636.946	         3018.14	         2381.19
     579	 2.00761	0.175519	        -636.091	         3017.26	         2381.17
     580	 2.00698	0.176655	        -635.185	         3016.31	         2381.13
     581	 2.00599	 0.17803	        -633.725	         3014.82	          2381.1
     582	 2.00439	0.179775	        -631.332	         3012.42	         2381.09
     583	 2.00215	0.181892	        -627.959	         3009.07	         2381.11
     584	 1.99953	0.184222	        -623.978	         3005.13	         2381.16
     585	 1.99703	0.186451	        -620.169	         3001.38	         2381.21
     586	 1.99523	0.188222	        -617.435	         2998.68	         2381.25
     587	 1.99443	0.189342	        -616.251	         2997.48	         2381.23
     588	 1.99447	0.189895	        -616.357	         2997.54	         2381.18
     589	 1.99492	 0.19013	        -617.068	         2998.21	         2381.15
     590	 1.99539	0.190272	        -617.787	         2998.92	         2381.13
     591	 1.99568	0.190433	        -618.219	         2999.35	         2381.13
     592	 1.99576	0.190625	        -618.334	         2999.48	         2381.15
     593	 1.99575	0.190788	        -618.298	         2999.47	         2381.17
     594	 1.99588	0.190792	        -618.452	         2999.66	         2381.21
     595	 1.99643	0.190473	        -619.245	         3000.48	         2381.23
     596	 1.99762	0.189703	         -621.03	         3002.27	         2381.24
     597	 1.99949	0.188476	        -623.852	         3005.08	         2381.23
     598	 2.00186	0.186914	        -627.428	         3008.63	          2381.2
     599	 2.00445	0.185196	        -631.328	         3012.51	         2381.18
     600	   2.007	 0.18349	        -635.167	         3016.34	         2381.17
     601	 2.00932	0.181923	        -638.662	         3019.82	         2381.16
     602	 2.01129	 0.18059	        -641.617	         3022.77	         2381.15
     603	  2.0128	0.179562	        -643.894	         3025.04	         2381.15
     604	  2.0138	 0.17889	        -645.394	         3026.54	         2381.15
     605	 2.01422	0.178612	        -646.039	         3027.18	         2381.14
     606	   2.014	0.178778	        -645.714	         3026.83	         2381.12
     607	 2.01299	0.179455	        -644.231	         3025.33	          2381.1
     608	 2.01109	0.180708	        -641.394	         3022.48	         2381.09
     609	 2.00829	0.182526	        -637.184	         3018.28	          2381.1
     610	 2.00484	0.184749	        -631.963	          3013.1	         2381.14
     611	 2.00127	0.187048	        -626.539	         3007.74	          2381.2
     612	 1.99823	0.189012	        -621.937	         3003.18	         2381.24
     613	 1.99624	0.190322	        -618.943	         3000.19	         2381.25
     614	 1.99541	0.190893	        -617.739	         2998.96	         2381.22
     615	 1.99546	0.190884	        -617.872	         2999.04	         2381.16
     616	 1.99588	0.190589	        -618.545	         2999.67	         2381.12
     617	 1.99621	0.190277	        -619.046	         3000.15	          2381.1
     618	 1.99623	0.190065	        -619.065	         3000.19	         2381.12
     619	 1.99604	0.189903	        -618.749	          2999.9	         2381.15
     620	 1.99591	0.189635	        -618.516	          2999.7	         2381.19
     621	 1.99612	0.189096	        -618.817	         3000.03	         2381.21
     622	 1.99689	0.188174	        -619.961	         3001.18	         2381.22
     623	 1.99828	0.186843	        -622.051	         3003.26	         2381.21
     624	 2.00024	0.185149	        -625.003	          3006.2	          2381.2
     625	 2.00261	0.183205	        -628.582	         3009.76	         2381.17
     626	  2.0051	0.181198	        -632.354	         3013.48	         2381.13
     627	 2.00725	0.179412	        -635.634	         3016.71	         2381.08
     628	 2.00851	 0.17818	        -637.578	         3018.61	         2381.03
     629	 2.00843	0.177777	        -637.477	         3018.49	         2381.01
     630	 2.00687	0.178281	        -635.103	         3016.14	         2381.04
     631	 2.00411	0.179506	        -630.906	         3012.01	          2381.1
     632	 2.00085	0.181031	        -625.933	         3007.12	         2381.19
     633	 1.99792	0.182344	        -621.462	         3002.71	         2381.25
     634	 1.99598	0.183027	        -618.521	          2999.8	         2381.28
     635	 1.99537	0.182869	        -617.611	         2998.89	         2381.28
     636	 1.99607	0.181871	        -618.701	         2999.95	         2381.25
     637	 1.99781	0.180202	        -621.347	         3002.55	          2381.2
     638	  2.0001	 0.17814	        -624.842	            3006	         2381.15
     639	  2.0025	0.175977	        -628.461	         3009.58	         2381.12
     640	  2.0047	  0.1739	        -631.766	          3012.9	         2381.13
     641	  2.0068	0.171895	        -634.865	         3016.03	         2381.17
     642	 2.00907	0.169807	        -638.254	         3019.44	         2381.19
     643	  2.0116	0.167603	        -642.098	         3023.24	         2381.14
     644	 2.01398	0.165559	         -645.73	         3026.81	         2381.08
     645	 2.01558	0.164064	        -648.165	         3029.22	         2381.05
     646	 2.01609	0.163325	        -648.901	         3029.97	         2381.07
     647	 2.01557	0.163295	        -648.091	          3029.2	         2381.11
     648	  2.0144	0.163772	        -646.286	         3027.43	         2381.15
     649	 2.01297	0.164512	        -644.117	          3025.3	         2381.18
     650	 2.01162	0.165324	        -642.072	         3023.26	         2381.19
     651	 2.01047	0.166116	         -640.36	         3021.54	         2381.18
     652	 2.00945	 0.16692	        -638.863	         3020.02	         2381.15
     653	 2.00832	0.167869	        -637.191	         3018.32	         2381.13
     654	 2.00687	0.169074	         -635.01	         3016.15	         2381.14
     655	 2.00521	0.170466	         -632.47	         3013.66	         2381.19
     656	 2.00371	0.171808	        -630.186	         3011.41	         2381.22
     657	 2.00266	0.172919	         -628.62	         3009.83	         2381.21
     658	  2.0019	0.173879	        -627.538	         3008.69	         2381.15
     659	 2.00097	0.174963	        -626.185	         3007.29	          2381.1
     660	 1.99938	 0.17643	        -623.837	         3004.92	         2381.08
     661	 1.99692	0.178399	        -620.144	         3001.23	         2381.08
     662	 1.99367	0.180802	        -615.225	         2996.34	         2381.11
     663	 1.98999	  0.1834	        -609.654	         2990.82	         2381.17
     664	 1.98648	0.185824	        -604.337	         2985.56	         2381.22
     665	 1.98373	0.187705	        -600.187	         2981.43	         2381.25
     666	 1.98209	0.188822	        -597.729	         2978.97	         2381.24
     667	 1.98157	0.189157	        -596.974	          2978.2	         2381.22
     668	 1.98206	0.188784	        -597.712	         2978.93	         2381.21
     669	 1.98345	0.187762	        -599.802	         2981.01	         2381.21
     670	 1.98561	0.186174	        -603.071	         2984.26	         2381.19
     671	 1.98829	0.184192	        -607.117	         2988.27	         2381.16
     672	 1.99114	0.182043	        -611.411	         2992.54	         2381.13
     673	 1.99385	0.179921	        -615.503	         2996.62	         2381.12
     674	 1.99625	0.177962	        -619.106	         3000.22	         2381.11
     675	 1.99824	 0.17624	        -622.085	          3003.2	         2381.12
     676	 1.99981	0.174778	         -624.43	         3005.56	         2381.13
     677	 2.00101	0.173565	        -626.214	         3007.35	         2381.14
     678	 2.00192	0.172563	        -627.566	         3008.71	         2381.15
     679	 2.00262	0.171733	        -628.615	         3009.77	         2381.15
     680	 2.00314	0.171067	        -629.401	         3010.55	         2381.14
     681	  2.0034	0.170612	        -629.806	         3010.93	         2381.13
     682	 2.00323	0.170462	        -629.577	         3010.69	         2381.11
     683	 2.00251	0.170696	        -628.491	          3009.6	         2381.11
     684	  2.0012	0.171314	         -626.52	         3007.64	         2381.12
     685	 1.99946	 0.17222	        -623.882	         3005.03	         2381.15
     686	 1.99754	0.173252	        -620.966	         3002.14	         2381.18
     687	 1.99573	0.174214	        -618.234	         2999.44	          2381.2
     688	 1.99435	0.174919	         -616.14	         2997.37	         2381.23
     689	 1.99363	0.175216	        -615.038	         2996.28	         2381.24
     690	 1.99369	 0.17502	        -615.133	         2996.38	         2381.24
     691	 1.99457	0.174317	        -616.453	         2997.69	         2381.24
     692	 1.99617	 0.17316	        -618.868	         3000.09	         2381.23
     693	 1.99831	0.171663	        -622.098	          3003.3	         2381.21
     694	 2.00075	0.169982	        -625.768	         3006.96	         2381.19
     695	 2.00323	0.168273	        -629.512	         3010.69	         2381.18
     696	  2.0056	0.166654	        -633.059	         3014.23	         2381.17
     697	 2.00771	 0.16521	         -636.24	         3017.41	         2381.17
     698	  2.0095	0.164005	        -638.926	         3020.09	         2381.17
     699	 2.01085	0.163111	        -640.958	         3022.11	         2381.15
     700	 2.01163	0.162609	        -642.148	         3023.29	         2381.14
     701	 2.01177	0.162557	        -642.351	         3023.49	         2381.14
     702	 2.01126	0.162947	        -641.578	         3022.73	         2381.16
     703	 2.01029	0.163675	        -640.084	         3021.27	         2381.18
     704	 2.00913	 0.16456	        -638.328	         3019.54	         2381.21
     705	 2.00813	0.165405	        -636.798	         3018.03	         2381.23
     706	 2.00746	0.166082	        -635.797	         3017.03	         2381.23
     707	 2.00716	0.166565	        -635.368	         3016.59	         2381.22
     708	 2.00718	0.166891	        -635.397	         3016.61	         2381.21
     709	 2.00739	 0.16712	        -635.729	         3016.93	          2381.2
     710	 2.00767	0.167332	        -636.166	         3017.35	         2381.18
     711	 2.00782	0.167648	        -636.408	         3017.57	         2381.16
     712	  2.0076	0.168205	        -636.103	         3017.25	         2381.14
     713	 2.00688	0.169094	        -635.017	         3016.16	         2381.14
     714	 2.00567	0.170299	        -633.179	         3014.34	         2381.17
     715	 2.00419	0.171682	         -630.93	         3012.13	          2381.2
     716	 2.00281	0.173025	        -628.823	         3010.06	         2381.23
     717	 2.00186	 0.17412	        -627.379	         3008.63	         2381.25
     718	 2.00149	0.174869	        -626.833	         3008.07	         2381.24
     719	 2.00162	0.175311	        -627.061	         3008.27	         2381.21
     720	 2.00205	0.175573	        -627.726	         3008.92	         2381.19
     721	 2.00255	0.175784	        -628.487	         3009.66	         2381.18
     722	 2.00297	0.176039	        -629.117	         3010.29	         2381.17
     723	 2.00321	0.176394	        -629.483	         3010.65	         2381.17
     724	  2.0032	0.176897	         -629.48	         3010.64	         2381.16
     725	 2.00288	0.177587	        -629.008	         3010.17	         2381.16
     726	 2.00223	0.178484	        -628.021	         3009.18	         2381.16
     727	 2.00127	0.179565	         -626.57	         3007.74	         2381.17
     728	 2.00008	0.180775	        -624.783	         3005.96	         2381.17
     729	 1.99876	0.182053	        -622.802	         3003.98	         2381.18
     730	 1.99738	0.183349	        -620.728	          3001.9	         2381.18
     731	 1.99598	0.184625	        -618.634	         2999.81	         2381.17
     732	 1.99463	0.185833	        -616.612	         2997.79	         2381.18
     733	  1.9934	0.186922	        -614.773	         2995.94	         2381.17
     734	 1.99231	0.187866	        -613.157	         2994.31	         2381.15
     735	  1.9913	0.188694	        -611.659	         2992.79	         2381.14
     736	 1.99029	0.189445	        -610.149	         2991.28	         2381.13
     737	 1.98934	0.190081	        -608.701	         2989.85	         2381.15
     738	 1.98869	0.190447	          -607.7	         2988.88	         2381.18
     739	 1.98871	0.190334	        -607.696	          2988.9	         2381.21
     740	 1.98967	0.189571	        -609.136	         2990.35	         2381.22
     741	 1.99169	 0.18811	        -612.169	         2993.38	         2381.21
     742	 1.99467	0.186022	         -616.65	         2997.84	         2381.19
     743	 1.99837	0.183462	        -622.229	          3003.4	         2381.17
     744	 2.00242	0.180677	        -628.332	         3009.46	         2381.13
     745	 2.00634	0.177969	        -634.241	         3015.35	         2381.11
     746	 2.00975	0.175592	        -639.362	         3020.46	          2381.1
     747	 2.01244	0.173687	        -643.389	         3024.49	          2381.1
     748	 2.01437	0.172293	        -646.277	         3027.39	         2381.12
     749	 2.01562	0.171384	        -648.134	         3029.26	         2381.13
     750	 2.01625	0.170921	        -649.086	         3030.22	         2381.13
     751	 2.01631	0.170889	        -649.174	          3030.3	         2381.13
     752	 2.01577	0.171294	        -648.367	          3029.5	         2381.13
     753	 2.01465	0.172123	        -646.679	         3027.81	         2381.13
     754	 2.01305	0.173306	        -644.261	         3025.41	         2381.15
     755	 2.01116	0.174716	        -641.409	         3022.58	         2381.17
     756	 2.00921	0.176204	        -638.476	         3019.66	         2381.18
     757	 2.00739	 0.17765	        -635.738	         3016.93	         2381.19
     758	 2.00581	0.178976	        -633.357	         3014.56	          2381.2
     759	 2.00457	0.180108	        -631.487	          3012.7	         2381.21
     760	  2.0038	0.180964	        -630.323	         3011.54	         2381.22
     761	 2.00353	0.181513	         -629.93	         3011.13	          2381.2
     762	 2.00362	 0.18183	        -630.097	         3011.27	         2381.18
     763	  2.0038	0.182073	        -630.399	         3011.54	         2381.14
     764	 2.00379	0.182404	        -630.394	         3011.52	         2381.12
     765	 2.00339	0.182925	        -629.799	         3010.92	         2381.12
     766	 2.00261	0.183629	        -628.609	         3009.75	         2381.14
     767	 2.00167	0.184376	        -627.167	         3008.35	         2381.18
     768	   2.001	0.184918	        -626.116	         3007.34	         2381.23
     769	 2.00103	0.184988	        -626.145	         3007.39	         2381.25
     770	 2.00198	0.184466	        -627.579	         3008.81	         2381.23
     771	 2.00366	 0.18346	        -630.149	         3011.33	         2381.18
     772	 2.00565	0.182235	         -633.18	         3014.32	         2381.14
     773	 2.00753	0.181055	        -636.013	         3017.13	         2381.12
     774	   2.009	0.180092	        -638.241	         3019.35	         2381.11
     775	 2.00999	0.179418	        -639.715	         3020.82	         2381.11
     776	 2.01051	0.179024	        -640.488	          3021.6	         2381.12
     777	 2.01072	0.178833	        -640.781	         3021.91	         2381.13
     778	 2.01081	0.178726	         -640.91	         3022.05	         2381.14
     779	 2.01094	0.178618	        -641.108	         3022.24	         2381.14
     780	 2.01116	0.178482	        -641.442	         3022.58	         2381.14
     781	 2.01159	0.178266	        -642.058	         3023.22	         2381.17
     782	 2.01246	0.177834	        -643.352	         3024.54	         2381.18
     783	 2.01387	0.177137	        -645.492	         3026.64	         2381.15
     784	  2.0154	0.176425	        -647.854	         3028.94	         2381.08
     785	 2.01638	0.176113	        -649.362	         3030.41	         2381.05
     786	 2.01635	0.176477	        -649.308	         3030.36	         2381.06
     787	 2.01527	0.177539	        -647.652	         3028.74	         2381.09
     788	 2.01337	0.179157	        -644.777	         3025.89	         2381.11
     789	 2.01089	0.181177	        -641.061	         3022.18	         2381.12
     790	 2.00795	 0.18352	        -636.655	         3017.77	         2381.12
     791	 2.00463	0.186125	        -631.642	         3012.78	         2381.14
     792	 2.00121	0.188794	        -626.459	         3007.65	         2381.19
     793	 1.99825	0.191168	        -621.988	         3003.22	         2381.23
     794	 1.99622	 0.19295	        -618.947	         3000.17	         2381.22
     795	 1.99509	0.194129	        -617.296	         2998.48	         2381.19
     796	 1.99458	0.194872	        -616.542	          2997.7	         2381.16
     797	 1.99445	0.195288	        -616.354	         2997.51	         2381.16
     798	 1.99467	0.195391	        -616.686	         2997.85	         2381.16
     799	 1.99524	0.195174	         -617.55	          2998.7	         2381.15
     800	 1.99608	0.194682	        -618.827	         2999.96	         2381.13
     801	 1.99701	0.194019	        -620.247	         3001.36	         2381.11
     802	  1.9979	0.193274	        -621.571	         3002.69	         2381.11
     803	 1.99874	 0.19245	        -622.814	         3003.95	         2381.14
     804	 1.99976	0.191428	        -624.307	         3005.48	         2381.17
     805	 2.00127	0.190038	         -626.54	         3007.74	          2381.2
     806	 2.00345	0.188177	        -629.829	         3011.02	         2381.19
     807	 2.00622	0.185924	         -634.01	         3015.16	         2381.15
     808	 2.00916	0.183531	        -638.467	         3019.58	         2381.11
     809	 2.01185	0.181276	        -642.513	         3023.61	          2381.1
     810	 2.01403	0.179315	        -645.783	         3026.89	         2381.11
     811	 2.01571	0.177665	        -648.285	         3029.41	         2381.12
     812	 2.01699	 0.17628	        -650.186	         3031.33	         2381.14
     813	 2.01794	0.175128	        -651.607	         3032.75	         2381.15
     814	 2.01856	 0.17422	        -652.544	         3033.69	         2381.14
     815	 2.01878	0.173606	        -652.882	         3034.02	         2381.13
     816	 2.01849	0.173355	        -652.447	         3033.57	         2381.13
     817	  2.0176	0.173516	        -651.108	         3032.24	         2381.13
     818	 2.01612	0.174075	        -648.884	         3030.03	         2381.14
     819	 2.01421	0.174942	         -645.99	         3027.15	         2381.16
     820	 2.01209	0.175967	        -642.787	         3023.98	         2381.19
     821	 2.01007	 0.17697	        -639.718	         3020.94	         2381.22
     822	 2.00843	0.177767	        -637.244	         3018.49	         2381.24
     823	 2.00743	 0.17821	        -635.732	         3016.98	         2381.25
     824	 2.00711	0.178264	        -635.277	          3016.5	         2381.23
     825	 2.00727	0.178052	        -635.557	         3016.74	         2381.18
     826	 2.00747	0.177825	        -635.917	         3017.05	         2381.13
     827	 2.00726	 0.17786	        -635.639	         3016.73	         2381.09
     828	 2.00628	0.178359	        -634.183	         3015.26	         2381.07
     829	 2.00437	0.179402	        -631.324	          3012.4	         2381.08
     830	 2.00165	0.180918	        -627.207	         3008.31	          2381.1
     831	 1.99849	0.182666	        -622.418	         3003.57	         2381.16
     832	 1.99554	0.184251	        -617.937	         2999.15	         2381.22
     833	 1.99346	0.185265	         -614.79	         2996.03	         2381.24
     834	 1.99259	0.185489	        -613.507	         2994.73	         2381.22
     835	 1.99287	0.184958	        -613.958	         2995.15	         2381.19
     836	 1.99407	0.183813	        -615.758	         2996.94	         2381.18
     837	 1.99608	0.182122	        -618.755	         2999.96	          2381.2
     838	 1.99893	0.179878	        -623.032	         3004.23	          2381.2
     839	 2.00251	0.177167	        -628.433	         3009.61	         2381.18
     840	 2.00646	0.174243	        -634.376	         3015.53	         2381.15
     841	 2.01036	0.171379	        -640.236	         3021.38	         2381.14
     842	 2.01393	0.168766	        -645.601	         3026.74	         2381.14
     843	 2.01697	0.166557	        -650.168	          3031.3	         2381.13
     844	 2.01927	0.164899	        -653.624	         3034.75	         2381.12
     845	 2.02067	0.163906	        -655.716	         3036.84	         2381.12
     846	  2.0211	0.163627	        -656.351	         3037.49	         2381.13
     847	 2.02061	0.164034	         -655.61	         3036.76	         2381.15
     848	 2.01934	0.165049	        -653.687	         3034.85	         2381.16
     849	 2.01742	0.166577	          -650.8	         3031.97	         2381.17
     850	 2.01497	0.168535	         -647.12	         3028.29	         2381.17
     851	 2.01204	0.170863	        -642.743	          3023.9	         2381.16
     852	 2.00867	0.173518	        -637.697	         3018.84	         2381.14
     853	 2.00486	0.176459	        -631.999	         3013.13	         2381.13
     854	 2.00074	 0.17959	          -625.8	         3006.95	         2381.15
     855	 1.99676	0.182627	        -619.749	         3000.98	         2381.23
     856	  1.9938	0.185026	        -615.224	         2996.54	         2381.31
     857	 1.99263	0.186293	        -613.492	         2994.78	         2381.29
     858	 1.99308	0.186517	        -614.278	         2995.46	         2381.18
     859	 1.99422	0.186258	        -616.064	         2997.17	         2381.11
     860	 1.99529	0.185958	        -617.678	         2998.78	          2381.1
     861	 1.99608	 0.18573	        -618.847	         2999.96	         2381.12
     862	  1.9967	0.185516	        -619.755	         3000.89	         2381.13
     863	  1.9973	0.185237	        -620.639	         3001.78	         2381.15
     864	 1.99798	0.184836	        -621.668	         3002.82	         2381.15
     865	 1.99879	0.184302	        -622.888	         3004.03	         2381.14
     866	 1.99969	 0.18367	        -624.231	         3005.37	         2381.14
     867	 2.00067	0.182956	        -625.684	         3006.84	         2381.16
     868	  2.0018	0.182127	        -627.377	         3008.55	         2381.17
     869	 2.00313	0.181175	        -629.375	         3010.53	         2381.16
     870	  2.0045	0.180196	        -631.462	          3012.6	         2381.13
     871	 2.00565	0.179368	        -633.199	         3014.31	         2381.11
     872	 2.00633	0.178838	        -634.218	         3015.33	         2381.11
     873	 2.00654	0.178617	        -634.509	         3015.65	         2381.14
     874	 2.00654	0.178565	        -634.469	         3015.65	         2381.18
     875	 2.00663	0.178504	        -634.586	         3015.78	         2381.19
     876	 2.00688	0.178392	        -634.984	         3016.15	         2381.17
     877	 2.00705	0.178371	        -635.288	         3016.42	         2381.13
     878	 2.00678	0.178661	        -634.912	         3016.01	          2381.1
     879	 2.00572	0.179448	        -633.353	         3014.43	         2381.07
     880	 2.00368	0.180835	          -630.3	         3011.36	         2381.06
     881	 2.00061	0.182823	        -625.685	         3006.75	         2381.07
     882	 1.99678	0.185237	        -619.883	         3001.01	         2381.13
     883	 1.99299	  0.1876	        -614.068	         2995.32	         2381.25
     884	 1.99055	0.189118	        -610.286	         2991.67	         2381.38
     885	 1.99063	0.189075	        -610.402	         2991.78	         2381.38
     886	 1.99323	0.187465	        -614.427	         2995.68	         2381.26
     887	 1.99721	0.184985	        -620.521	         3001.65	         2381.13
     888	 2.00125	0.182424	        -626.649	         3007.71	         2381.06
     889	 2.00453	0.180272	         -631.59	         3012.64	         2381.05
     890	 2.00673	0.178738	        -634.882	         3015.94	         2381.06
     891	 2.00785	0.177843	        -636.535	         3017.62	         2381.08
     892	 2.00808	0.177488	        -636.841	         3017.95	         2381.11
     893	 2.00769	0.177513	        -636.237	         3017.38	         2381.14
     894	 2.00701	 0.17774	         -635.19	         3016.36	         2381.17
     895	 2.00633	0.177997	        -634.139	         3015.33	         2381.19
     896	 2.00592	0.178123	        -633.502	         3014.71	         2381.21
     897	 2.00599	 0.17799	        -633.615	         3014.83	         2381.21
     898	 2.00655	  0.1776	        -634.484	         3015.66	         2381.17
     899	 2.00721	0.177165	        -635.552	         3016.66	         2381.11
     900	 2.00741	0.177029	        -635.903	         3016.96	         2381.06
     901	  2.0067	0.177451	         -634.84	         3015.89	         2381.05
     902	 2.00509	0.178422	        -632.367	         3013.47	          2381.1
     903	 2.00308	0.179637	        -629.276	         3010.46	         2381.18
     904	 2.00144	0.180635	        -626.766	         3008.01	         2381.24
     905	 2.00075	0.181075	        -625.725	         3006.96	         2381.23
     906	 2.00097	0.180959	        -626.125	         3007.29	         2381.17
     907	 2.00155	0.180619	        -627.066	         3008.16	         2381.09
     908	 2.00183	0.180435	        -627.524	         3008.59	         2381.06
     909	 2.00161	0.180534	        -627.156	         3008.25	          2381.1
     910	 2.00116	 0.18074	         -626.44	         3007.58	         2381.14
     911	 2.00088	0.180805	        -626.023	         3007.17	         2381.14
     912	  2.0009	 0.18066	        -626.061	         3007.19	         2381.13
     913	 2.00119	0.180328	        -626.463	         3007.62	         2381.16
     914	 2.00201	0.179652	        -627.631	         3008.86	         2381.23
     915	 2.00389	0.178319	        -630.426	         3011.68	         2381.25
     916	 2.00694	0.176263	        -635.066	         3016.26	         2381.19
     917	  2.0105	0.173901	        -640.486	         3021.58	          2381.1
     918	  2.0136	0.171817	        -645.191	         3026.24	         2381.05
     919	 2.01567	 0.17037	        -648.287	         3029.35	         2381.06
     920	 2.01661	0.169625	        -649.662	         3030.76	          2381.1
     921	 2.01666	0.169454	        -649.688	         3030.83	         2381.14
     922	 2.01617	0.169656	        -648.913	         3030.09	         2381.18
     923	 2.01547	0.170038	        -647.845	         3029.04	          2381.2
     924	  2.0148	0.170466	        -646.824	         3028.03	         2381.21
     925	 2.01425	0.170875	        -646.005	         3027.21	         2381.21
     926	 2.01386	0.171245	        -645.421	         3026.63	         2381.21
     927	 2.01362	0.171578	        -645.061	         3026.27	         2381.21
     928	 2.01348	0.171895	        -644.866	         3026.06	          2381.2
     929	 2.01335	 0.17225	        -644.689	         3025.87	         2381.18
     930	 2.01306	0.172739	        -644.276	         3025.44	         2381.16
     931	 2.01243	0.173463	        -643.341	         3024.49	         2381.14
     932	 2.01131	  0.1745	        -641.663	          3022.8	         2381.14
     933	 2.00962	0.175876	         -639.14	         3020.27	         2381.13
     934	 2.00739	0.177568	        -635.789	         3016.93	         2381.14
     935	  2.0047	0.179502	        -631.739	         3012.89	         2381.15
     936	 2.00173	0.181552	        -627.258	         3008.43	         2381.17
     937	 1.99878	0.183512	        -622.809	         3004.02	         2381.21
     938	 1.99631	 0.18511	         -619.05	          3000.3	         2381.25
     939	 1.99476	0.186053	        -616.704	         2997.98	         2381.28
     940	 1.99449	0.186135	         -616.29	         2997.57	         2381.28
     941	 1.99551	0.185337	        -617.852	          2999.1	         2381.25
     942	 1.99756	0.183824	        -620.969	         3002.18	         2381.21
     943	 2.00024	0.181844	        -625.023	          3006.2	         2381.18
     944	 2.00317	0.179634	         -629.44	         3010.59	         2381.15
     945	 2.00608	0.177371	        -633.812	         3014.96	         2381.15
     946	 2.00888	0.175135	        -637.998	         3019.16	         2381.17
     947	 2.01165	0.172905	        -642.124	         3023.31	         2381.19
     948	 2.01449	0.170635	         -646.38	         3027.58	          2381.2
     949	 2.01744	0.168338	        -650.806	            3032	         2381.19
     950	 2.02037	0.166107	        -655.224	         3036.39	         2381.17
     951	 2.02302	0.164116	        -659.238	         3040.37	         2381.13
     952	   2.025	0.162611	         -662.25	         3043.33	         2381.08
     953	 2.02586	0.161858	        -663.588	         3044.63	         2381.05
     954	 2.02535	 0.16202	        -662.816	         3043.87	         2381.05
     955	 2.02369	0.162978	        -660.235	         3041.37	         2381.13
     956	 2.02176	0.164203	        -657.239	         3038.48	         2381.24
     957	 2.02059	0.165071	        -655.475	         3036.72	         2381.25
     958	 2.02027	0.165516	        -655.085	         3036.24	         2381.15
     959	 2.02002	0.166004	        -654.775	         3035.87	          2381.1
     960	 2.01929	0.166862	        -653.648	         3034.77	         2381.12
     961	 2.01811	 0.16803	        -651.849	         3033.01	         2381.16
     962	 2.01683	0.169309	          -649.9	         3031.08	         2381.18
     963	 2.01558	  0.1706	        -648.043	         3029.21	         2381.16
     964	 2.01424	0.171966	        -646.072	          3027.2	         2381.13
     965	 2.01256	0.173545	        -643.575	         3024.68	         2381.11
     966	 2.01042	0.175395	        -640.346	         3021.47	         2381.12
     967	 2.00804	 0.17737	        -636.723	          3017.9	         2381.17
     968	 2.00605	0.179095	        -633.668	         3014.92	         2381.25
     969	  2.0052	0.180118	        -632.364	         3013.64	         2381.28
     970	 2.00581	0.180245	        -633.322	         3014.55	         2381.23
     971	 2.00745	0.179728	        -635.874	         3017.01	         2381.13
     972	 2.00926	0.179079	        -638.673	         3019.73	         2381.05
     973	 2.01051	0.178737	        -640.576	         3021.61	         2381.03
     974	 2.01103	0.178819	         -641.31	         3022.39	         2381.08
     975	 2.01128	0.179058	        -641.621	         3022.76	         2381.14
     976	 2.01179	 0.17913	        -642.402	         3023.53	         2381.13
     977	 2.01249	 0.17909	        -643.506	         3024.58	         2381.07
     978	 2.01292	0.179223	        -644.155	         3025.22	         2381.07
     979	 2.01298	0.179583	        -644.191	         3025.31	         2381.12
     980	 2.01299	0.179965	        -644.162	         3025.32	         2381.16
     981	 2.01327	0.180176	        -644.582	         3025.75	         2381.17
     982	 2.01387	0.180198	        -645.501	         3026.65	         2381.15
     983	 2.01459	0.180148	        -646.607	         3027.73	         2381.12
     984	 2.01513	  0.1802	        -647.441	         3028.54	          2381.1
     985	 2.01519	0.180528	        -647.549	         3028.63	         2381.08
     986	 2.01461	0.181228	        -646.661	         3027.75	         2381.09
     987	 2.01343	0.182261	        -644.868	         3025.99	         2381.12
     988	 2.01198	0.183434	        -642.648	         3023.81	         2381.17
     989	 2.01072	0.184469	        -640.709	         3021.92	         2381.21
     990	 2.01009	0.185098	        -639.736	         3020.98	         2381.24
     991	 2.01039	0.185143	        -640.176	         3021.42	         2381.25
     992	 2.01171	0.184554	        -642.167	         3023.41	         2381.24
     993	 2.01398	0.183386	         -645.59	         3026.82	         2381.23
     994	   2.017	0.181768	        -650.146	         3031.34	          2381.2
     995	 2.02041	0.179928	          -655.3	         3036.45	         2381.15
     996	 2.02366	0.178199	        -660.235	         3041.33	          2381.1
     997	 2.02619	0.176938	        -664.062	         3045.13	         2381.07
     998	 2.02759	0.176398	         -666.16	         3047.22	         2381.06
     999	 2.02772	0.176657	        -666.349	         3047.43	         2381.08
