    Step 	 temperature 	 pressure 	 Potential Energy 	 Kinetic Energy 	 Sum Energy

       0	 2.44898	-1.91352	        -4426.69	         3684.06	        -742.629
       1	 2.44729	-1.90087	        -4424.19	         3681.52	        -742.676
       2	 2.44194	  -1.862	        -4416.27	          3673.5	        -742.769
       3	 2.43218	-1.79443	        -4401.79	         3658.85	        -742.936
       4	 2.41667	-1.69381	        -4378.78	         3635.59	         -743.19
       5	  2.3934	-1.55378	        -4344.23	         3600.69	        -743.543
       6	 2.35972	-1.36604	        -4294.14	         3550.17	        -743.978
       7	 2.31263	-1.12162	        -4223.93	         3479.53	        -744.392
       8	 2.25002	-0.814895	        -4130.15	         3385.62	        -744.534
       9	 2.17299	-0.451642	        -4014.17	         3270.07	        -744.102
      10	   2.088	-0.0569109	        -3885.76	         3142.58	        -743.179
      11	 2.00536	    0.33	        -3761.03	         3018.63	        -742.401
      12	 1.93378	 0.67583	         -3653.4	         2911.26	        -742.141
      13	 1.87696	 0.96578	         -3568.2	         2826.03	        -742.174
      14	   1.835	 1.19789	        -3505.31	         2763.08	        -742.234
      15	 1.80693	 1.37421	        -3463.22	         2720.97	        -742.241
      16	 1.79187	 1.49704	        -3440.63	         2698.39	        -742.238
      17	 1.78888	 1.56955	        -3436.22	         2693.91	         -742.31
      18	 1.79634	 1.59779	        -3447.59	         2705.09	        -742.495
      19	 1.81165	 1.59166	        -3470.83	         2728.07	        -742.759
      20	 1.83161	 1.56353	        -3501.04	         2758.01	        -743.035
      21	 1.85297	 1.52597	        -3533.31	         2790.04	        -743.278
      22	 1.87292	 1.48991	        -3563.44	         2819.97	        -743.475
      23	 1.88932	 1.46393	        -3588.19	         2844.57	        -743.618
      24	 1.90082	 1.45364	        -3605.48	         2861.82	        -743.663
      25	 1.90722	 1.46037	        -3615.01	         2871.42	        -743.592
      26	 1.90953	 1.48082	        -3618.35	         2874.89	        -743.465
      27	 1.90946	 1.50908	        -3618.13	         2874.78	        -743.353
      28	 1.90871	 1.53911	        -3616.91	         2873.65	        -743.261
      29	 1.90875	 1.56556	        -3616.91	         2873.71	         -743.21
      30	 1.91052	 1.58478	        -3619.62	         2876.36	         -743.26
      31	 1.91403	 1.59654	        -3625.01	         2881.64	        -743.376
      32	  1.9188	 1.60273	        -3632.19	         2888.79	        -743.397
      33	 1.92494	 1.60301	        -3641.32	            2898	        -743.323
      34	 1.93302	 1.59521	        -3653.48	         2910.12	        -743.363
      35	 1.94262	  1.5811	        -3668.02	         2924.51	        -743.503
      36	 1.95237	 1.56593	        -3682.72	         2939.14	        -743.578
      37	 1.96123	 1.55356	        -3696.03	         2952.44	        -743.589
      38	 1.96872	 1.54574	         -3707.3	         2963.66	        -743.643
      39	 1.97415	 1.54486	        -3715.57	         2971.82	        -743.759
      40	 1.97667	 1.55416	        -3719.39	         2975.59	        -743.804
      41	 1.97622	 1.57391	        -3718.59	         2974.92	        -743.665
      42	 1.97429	 1.59874	        -3715.49	         2972.02	        -743.472
      43	 1.97272	 1.62176	        -3713.07	         2969.67	        -743.405
      44	 1.97232	 1.64004	        -3712.51	         2969.07	        -743.438
      45	 1.97285	 1.65425	        -3713.37	         2969.86	        -743.509
      46	 1.97357	 1.66663	        -3714.54	         2970.95	        -743.591
      47	 1.97378	 1.67954	        -3714.86	         2971.25	        -743.604
      48	 1.97348	 1.69298	        -3714.28	         2970.81	        -743.468
      49	 1.97399	  1.7024	        -3714.82	         2971.57	        -743.257
      50	 1.97711	 1.70135	        -3719.44	         2976.26	        -743.182
      51	 1.98347	 1.68788	         -3729.1	         2985.79	        -743.312
      52	 1.99185	 1.66658	        -3741.87	         2998.36	        -743.509
      53	 2.00034	 1.64441	        -3754.76	          3011.1	        -743.654
      54	 2.00754	 1.62656	        -3765.58	         3021.89	        -743.685
      55	 2.01313	 1.61428	         -3773.9	         3030.28	        -743.621
      56	 2.01763	 1.60574	        -3780.61	         3037.03	        -743.585
      57	 2.02137	 1.59976	        -3786.28	         3042.65	        -743.631
      58	 2.02406	 1.59756	        -3790.32	         3046.67	        -743.654
      59	 2.02543	 1.59991	        -3792.34	         3048.74	        -743.604
      60	 2.02581	 1.60555	        -3792.84	         3049.31	        -743.535
      61	 2.02572	 1.61253	        -3792.67	         3049.17	        -743.497
      62	 2.02547	 1.61974	        -3792.29	         3048.79	        -743.498
      63	 2.02503	 1.62729	        -3791.65	         3048.13	        -743.522
      64	 2.02414	 1.63617	        -3790.36	         3046.79	        -743.572
      65	 2.02227	 1.64822	        -3787.65	         3043.99	        -743.658
      66	 2.01868	 1.66606	        -3782.36	         3038.61	        -743.744
      67	 2.01278	  1.6918	        -3773.51	         3029.75	        -743.757
      68	 2.00473	 1.72473	        -3761.33	         3017.68	        -743.654
      69	 1.99586	 1.76007	        -3747.84	         3004.38	        -743.458
      70	 1.98832	 1.79007	        -3736.34	         2993.07	        -743.267
      71	 1.98412	 1.80749	        -3729.96	         2986.76	        -743.202
      72	 1.98397	 1.80967	        -3729.85	         2986.55	          -743.3
      73	 1.98705	 1.79973	        -3734.62	         2991.16	        -743.461
      74	 1.99173	 1.78351	        -3741.76	         2998.19	        -743.578
      75	 1.99664	 1.76601	        -3749.19	         3005.54	        -743.649
      76	 2.00081	 1.75066	        -3755.51	         3011.81	        -743.703
      77	 2.00361	 1.73993	        -3759.75	            3016	        -743.749
      78	 2.00457	 1.73543	        -3761.24	         3017.45	        -743.787
      79	 2.00359	 1.73774	        -3759.74	         3015.97	        -743.763
      80	 2.00133	 1.74473	        -3756.19	         3012.59	        -743.601
      81	 1.99968	 1.74986	         -3753.5	          3010.1	        -743.397
      82	 2.00062	 1.74588	        -3754.91	         3011.52	        -743.389
      83	 2.00436	 1.73212	        -3760.74	         3017.13	        -743.612
      84	 2.00893	 1.71576	        -3767.84	         3023.99	        -743.856
      85	 2.01196	 1.70536	        -3772.47	         3028.52	        -743.948
      86	 2.01223	 1.70506	        -3772.85	         3028.94	        -743.909
      87	 2.00983	 1.71448	        -3769.18	         3025.34	        -743.837
      88	 2.00541	 1.73129	        -3762.46	          3018.7	        -743.757
      89	 1.99989	 1.75216	        -3754.07	         3010.42	         -743.65
      90	 1.99457	 1.77247	        -3745.96	         3002.45	        -743.507
      91	 1.99092	 1.78686	        -3740.43	         2996.96	        -743.467
      92	 1.98918	 1.79388	        -3738.03	         2994.36	        -743.668
      93	 1.98777	 1.79933	        -3736.05	         2992.24	         -743.81
      94	 1.98537	 1.80779	        -3732.34	         2988.65	        -743.693
      95	 1.98266	  1.8165	         -3728.1	         2984.58	        -743.526
      96	 1.98086	 1.82084	         -3725.4	         2981.88	        -743.517
      97	 1.98008	 1.82058	        -3724.33	          2980.7	        -743.629
      98	 1.97937	 1.81925	        -3723.36	         2979.65	        -743.713
      99	 1.97802	 1.81965	         -3721.3	         2977.61	        -743.686
     100	 1.97625	 1.82118	        -3718.54	         2974.96	        -743.585
     101	 1.97489	 1.82105	        -3716.48	         2972.93	        -743.551
     102	 1.97421	 1.81855	        -3715.56	          2971.9	        -743.664
     103	 1.97328	 1.81717	         -3714.3	         2970.51	         -743.79
     104	 1.97116	 1.82057	        -3711.09	         2967.32	        -743.766
     105	 1.96809	 1.82776	        -3706.34	         2962.72	        -743.615
     106	 1.96546	 1.83367	        -3702.25	         2958.77	         -743.48
     107	 1.96463	 1.83338	        -3700.95	         2957.53	        -743.421
     108	 1.96632	  1.8243	        -3703.49	         2960.06	        -743.424
     109	 1.97056	  1.8063	        -3709.92	         2966.42	        -743.496
     110	 1.97668	 1.78178	        -3719.22	         2975.61	         -743.61
     111	 1.98364	 1.75477	        -3729.75	         2986.05	        -743.696
     112	 1.99048	 1.72893	        -3740.07	          2996.3	         -743.77
     113	 1.99619	 1.70786	        -3748.78	         3004.87	        -743.904
     114	 1.99938	 1.69674	        -3753.68	         3009.66	        -744.026
     115	 1.99886	 1.69994	        -3752.88	         3008.88	        -743.999
     116	 1.99477	  1.7169	        -3746.59	         3002.74	        -743.851
     117	 1.98841	 1.74269	        -3736.89	          2993.2	        -743.683
     118	  1.9815	  1.7711	        -3726.39	         2982.83	        -743.555
     119	 1.97542	 1.79694	         -3717.2	         2973.71	        -743.491
     120	 1.97097	 1.81714	        -3710.51	         2967.04	        -743.472
     121	  1.9685	 1.83025	        -3706.77	         2963.34	        -743.432
     122	  1.9684	 1.83478	        -3706.56	         2963.18	         -743.38
     123	   1.971	 1.82933	        -3710.46	         2967.09	        -743.374
     124	 1.97622	 1.81421	        -3718.35	         2974.92	        -743.429
     125	 1.98335	 1.79197	        -3729.16	         2985.61	        -743.548
     126	   1.991	 1.76747	        -3740.83	         2997.08	        -743.747
     127	 1.99715	 1.74785	        -3750.25	          3006.3	        -743.941
     128	 2.00003	  1.7395	         -3754.6	         3010.64	        -743.958
     129	 1.99958	 1.74285	         -3753.7	         3009.95	         -743.75
     130	 1.99766	 1.75112	        -3750.58	         3007.08	        -743.495
     131	 1.99659	 1.75602	         -3748.9	         3005.47	        -743.432
     132	 1.99705	 1.75504	        -3749.73	         3006.17	        -743.564
     133	 1.99808	 1.75176	        -3751.41	         3007.71	        -743.702
     134	  1.9985	  1.7503	        -3752.07	         3008.33	        -743.734
     135	 1.99806	 1.75152	        -3751.36	         3007.68	        -743.674
     136	 1.99747	 1.75314	        -3750.37	         3006.79	         -743.58
     137	  1.9978	 1.75161	        -3750.79	         3007.29	        -743.494
     138	 1.99995	 1.74401	        -3754.01	         3010.51	        -743.499
     139	 2.00377	 1.73089	        -3759.89	         3016.24	        -743.652
     140	 2.00773	 1.71778	        -3766.03	         3022.18	        -743.843
     141	 2.00989	 1.71169	        -3769.34	         3025.43	        -743.919
     142	 2.00927	 1.71607	        -3768.33	         3024.49	        -743.839
     143	 2.00627	 1.72928	         -3763.7	         3019.99	        -743.709
     144	  2.0019	 1.74753	        -3757.06	         3013.43	        -743.626
     145	 1.99696	  1.7678	        -3749.58	         3006.02	        -743.558
     146	 1.99216	 1.78742	         -3742.3	         2998.83	         -743.47
     147	  1.9883	 1.80333	        -3736.46	         2993.04	         -743.42
     148	 1.98579	  1.8138	        -3732.74	         2989.27	        -743.462
     149	 1.98427	  1.8201	        -3730.55	         2986.99	        -743.557
     150	 1.98289	 1.82528	        -3728.55	         2984.93	        -743.626
     151	 1.98096	 1.83184	        -3725.68	         2982.03	        -743.649
     152	 1.97818	 1.84078	         -3721.5	         2977.86	        -743.642
     153	 1.97462	 1.85191	        -3716.14	         2972.52	        -743.613
     154	 1.97062	 1.86401	         -3710.1	         2966.52	        -743.571
     155	 1.96675	 1.87507	        -3704.22	          2960.7	        -743.511
     156	 1.96377	  1.8823	        -3699.67	         2956.25	        -743.424
     157	 1.96271	 1.88214	        -3697.99	         2954.66	        -743.336
     158	 1.96445	 1.87144	        -3700.58	         2957.27	        -743.315
     159	 1.96915	 1.84968	        -3707.73	         2964.31	        -743.412
     160	 1.97583	 1.82049	        -3717.92	         2974.33	        -743.591
     161	 1.98272	 1.79036	        -3728.41	         2984.67	        -743.747
     162	 1.98825	 1.76519	        -3736.77	         2992.97	        -743.797
     163	 1.99174	 1.74761	        -3741.98	          2998.2	        -743.778
     164	 1.99316	 1.73787	         -3744.1	         3000.33	        -743.771
     165	 1.99254	 1.73609	        -3743.16	          2999.4	        -743.758
     166	 1.99003	 1.74192	        -3739.32	         2995.63	        -743.696
     167	 1.98623	 1.75333	        -3733.51	         2989.93	        -743.585
     168	 1.98219	 1.76666	        -3727.34	         2983.87	        -743.465
     169	 1.97903	 1.77796	        -3722.55	         2979.14	        -743.413
     170	 1.97726	 1.78537	        -3719.96	         2976.48	        -743.489
     171	 1.97631	 1.79079	         -3718.7	         2975.05	        -743.646
     172	 1.97506	 1.79824	        -3716.92	         2973.18	         -743.74
     173	 1.97291	 1.80973	        -3713.69	         2969.95	        -743.745
     174	 1.96988	 1.82467	        -3709.19	         2965.41	        -743.782
     175	 1.96595	 1.84293	         -3703.3	         2959.51	        -743.798
     176	 1.96131	 1.86358	        -3696.24	         2952.55	         -743.69
     177	  1.9571	 1.88218	        -3689.77	         2946.24	         -743.53
     178	 1.95493	 1.89274	        -3686.41	         2942.98	        -743.422
     179	 1.95593	  1.8911	         -3687.9	         2944.49	        -743.417
     180	 1.96017	 1.87695	        -3694.37	         2950.84	        -743.525
     181	  1.9666	 1.85397	        -3704.15	         2960.48	        -743.668
     182	 1.97376	 1.82745	        -3714.96	         2971.22	        -743.744
     183	 1.98065	 1.80098	         -3725.3	         2981.57	        -743.734
     184	 1.98702	 1.77563	        -3734.81	         2991.11	        -743.699
     185	 1.99286	 1.75148	        -3743.56	         2999.88	        -743.682
     186	 1.99815	  1.7289	        -3751.47	         3007.81	        -743.665
     187	  2.0029	 1.70805	        -3758.56	         3014.94	         -743.62
     188	 2.00734	 1.68837	        -3765.19	          3021.6	        -743.589
     189	 2.01149	 1.66983	        -3771.47	         3027.83	        -743.641
     190	 2.01479	  1.6547	        -3776.49	         3032.77	        -743.722
     191	 2.01649	 1.64583	        -3779.04	         3035.32	        -743.714
     192	 2.01662	 1.64328	        -3779.13	         3035.52	        -743.615
     193	 2.01599	 1.64409	        -3778.09	         3034.57	        -743.519
     194	 2.01546	 1.64521	        -3777.25	         3033.77	        -743.483
     195	 2.01534	 1.64544	        -3777.09	          3033.6	        -743.498
     196	 2.01544	  1.6453	        -3777.28	         3033.75	        -743.531
     197	 2.01539	 1.64594	        -3777.21	         3033.68	        -743.536
     198	 2.01504	 1.64777	        -3776.66	         3033.15	        -743.509
     199	 2.01451	 1.65022	        -3775.85	         3032.35	        -743.502
     200	 2.01377	 1.65328	        -3774.79	         3031.24	        -743.548
     201	 2.01248	 1.65828	         -3772.9	          3029.3	        -743.599
     202	 2.01029	 1.66648	        -3769.61	         3026.02	         -743.59
     203	 2.00742	 1.67719	        -3765.25	         3021.72	        -743.526
     204	 2.00454	 1.68798	        -3760.88	          3017.4	        -743.479
     205	 2.00219	 1.69693	        -3757.37	         3013.87	        -743.502
     206	 2.00034	 1.70415	        -3754.65	          3011.1	        -743.554
     207	 1.99873	 1.71072	        -3752.24	         3008.68	        -743.564
     208	 1.99738	 1.71664	        -3750.18	         3006.65	        -743.531
     209	 1.99662	 1.72078	        -3749.05	         3005.52	        -743.524
     210	 1.99657	  1.7229	        -3749.01	         3005.44	        -743.567
     211	 1.99686	 1.72448	         -3749.5	         3005.88	        -743.611
     212	 1.99697	 1.72748	        -3749.69	         3006.04	        -743.656
     213	 1.99621	 1.73413	        -3748.64	          3004.9	        -743.739
     214	 1.99367	 1.74755	        -3744.92	          3001.1	        -743.826
     215	 1.98852	 1.77043	        -3737.23	         2993.37	        -743.855
     216	 1.98063	 1.80296	        -3725.32	         2981.53	        -743.788
     217	 1.97094	 1.84142	        -3710.62	            2967	        -743.613
     218	 1.96155	 1.87819	        -3696.29	         2952.91	        -743.383
     219	 1.95496	 1.90396	        -3686.26	         2943.03	        -743.236
     220	 1.95287	 1.91247	        -3683.16	         2939.89	        -743.265
     221	 1.95527	 1.90367	        -3686.91	         2943.49	        -743.412
     222	 1.96085	 1.88226	        -3695.45	         2951.87	        -743.582
     223	 1.96781	 1.85465	        -3706.05	         2962.31	        -743.745
     224	 1.97435	 1.82733	        -3715.98	         2972.11	        -743.865
     225	 1.97918	  1.8052	        -3723.22	         2979.35	        -743.871
     226	 1.98214	 1.78916	        -3727.52	         2983.79	        -743.727
     227	 1.98447	  1.7752	        -3730.82	         2987.29	        -743.531
     228	 1.98771	 1.75799	        -3735.66	         2992.15	        -743.509
     229	 1.99194	 1.73751	        -3742.16	          2998.5	        -743.657
     230	 1.99585	  1.7189	         -3748.1	         3004.36	        -743.739
     231	 1.99852	 1.70551	        -3752.05	         3008.37	        -743.678
     232	 2.00034	 1.69606	        -3754.65	         3011.09	        -743.558
     233	 2.00225	 1.68719	        -3757.46	         3013.96	        -743.507
     234	 2.00459	 1.67767	        -3761.09	         3017.48	        -743.611
     235	 2.00635	 1.67108	        -3763.93	         3020.11	        -743.814
     236	 2.00564	 1.67391	        -3763.01	         3019.05	        -743.955
     237	 2.00117	 1.69054	        -3756.28	         3012.34	        -743.938
     238	 1.99316	 1.71981	        -3744.09	         3000.32	         -743.77
     239	 1.98337	 1.75518	        -3729.16	         2985.64	        -743.517
     240	 1.97448	 1.78702	        -3715.57	         2972.31	        -743.264
     241	 1.96914	 1.80578	         -3707.4	         2964.29	        -743.106
     242	 1.96905	 1.80532	        -3707.25	         2964.17	        -743.084
     243	 1.97464	 1.78443	         -3715.7	         2972.55	        -743.148
     244	 1.98516	 1.74592	        -3731.65	         2988.32	        -743.329
     245	 1.99848	 1.69744	        -3751.97	         3008.31	        -743.664
     246	 2.01114	 1.65174	        -3771.28	          3027.3	        -743.975
     247	 2.01981	 1.62094	        -3784.43	          3040.3	        -744.122
     248	 2.02268	 1.61153	        -3788.72	          3044.6	        -744.113
     249	 2.01968	 1.62375	        -3784.09	         3040.11	        -743.974
     250	 2.01224	 1.65259	        -3772.69	         3028.94	        -743.748
     251	 2.00273	  1.6894	        -3758.18	         3014.69	        -743.487
     252	 1.99395	 1.72417	        -3744.76	         3001.51	         -743.25
     253	 1.98831	   1.748	        -3736.18	         2993.06	        -743.117
     254	 1.98716	 1.75598	        -3734.47	         2991.33	        -743.142
     255	 1.99023	 1.74894	        -3739.24	         2995.94	        -743.302
     256	 1.99589	 1.73269	        -3747.96	         3004.43	        -743.531
     257	 2.00178	 1.71563	        -3757.01	         3013.26	        -743.749
     258	 2.00567	 1.70581	        -3762.98	         3019.09	        -743.887
     259	 2.00613	 1.70834	         -3763.7	         3019.79	        -743.917
     260	 2.00288	  1.7243	        -3758.76	          3014.9	        -743.857
     261	 1.99659	 1.75121	        -3749.22	         3005.47	         -743.75
     262	 1.98856	 1.78441	        -3737.07	         2993.43	        -743.637
     263	 1.98021	 1.81869	        -3724.46	         2980.91	        -743.557
     264	 1.97273	 1.84962	         -3713.2	         2969.68	        -743.526
     265	 1.96687	 1.87436	        -3704.43	         2960.89	        -743.534
     266	 1.96299	 1.89158	        -3698.64	         2955.07	        -743.572
     267	 1.96106	 1.90138	         -3695.8	         2952.17	        -743.629
     268	 1.96077	   1.905	        -3695.42	         2951.75	        -743.671
     269	 1.96175	 1.90397	        -3696.94	         2953.22	        -743.718
     270	 1.96333	  1.9006	        -3699.43	         2955.58	        -743.848
     271	 1.96422	 1.89957	         -3700.9	         2956.92	        -743.985
     272	 1.96331	 1.90504	        -3699.51	         2955.55	        -743.959
     273	 1.96094	 1.91576	        -3695.79	            2952	        -743.788
     274	 1.95877	 1.92574	        -3692.39	         2948.74	        -743.644
     275	 1.95838	  1.9295	        -3691.72	         2948.15	        -743.568
     276	 1.96064	 1.92412	        -3695.09	         2951.55	        -743.545
     277	  1.9656	 1.90942	        -3702.64	         2958.99	        -743.647
     278	 1.97211	 1.88951	        -3712.59	         2968.76	        -743.833
     279	 1.97828	 1.87121	        -3721.95	         2978.01	        -743.939
     280	 1.98291	 1.85883	        -3728.83	         2984.95	        -743.881
     281	 1.98615	 1.85167	         -3733.6	         2989.82	        -743.783
     282	  1.9886	  1.8475	        -3737.26	         2993.49	        -743.775
     283	  1.9903	 1.84633	         -3739.8	         2996.03	        -743.771
     284	 1.99121	 1.84837	        -3741.11	          2997.4	        -743.705
     285	 1.99167	 1.85222	        -3741.79	          2998.1	        -743.687
     286	  1.9917	 1.85769	         -3741.9	         2998.13	         -743.77
     287	 1.99059	 1.86712	        -3740.34	         2996.48	        -743.862
     288	 1.98772	 1.88269	        -3736.02	         2992.17	        -743.845
     289	 1.98347	 1.90289	        -3729.48	         2985.79	        -743.698
     290	 1.97928	 1.92224	        -3723.07	          2979.5	        -743.561
     291	 1.97647	 1.93582	        -3718.86	          2975.3	        -743.562
     292	 1.97521	 1.94308	        -3717.03	         2973.41	        -743.623
     293	   1.975	 1.94584	        -3716.73	         2973.08	        -743.646
     294	 1.97559	 1.94503	        -3717.57	         2973.97	        -743.604
     295	 1.97729	 1.93964	        -3720.06	         2976.52	        -743.544
     296	 1.98048	 1.92838	        -3724.88	          2981.3	        -743.581
     297	 1.98465	  1.9131	        -3731.33	         2987.57	        -743.768
     298	 1.98805	 1.90022	        -3736.67	         2992.66	        -744.005
     299	 1.98854	 1.89739	        -3737.53	          2993.4	        -744.135
     300	 1.98511	 1.90832	        -3732.29	         2988.25	        -744.042
     301	 1.97888	 1.92911	        -3722.65	         2978.91	        -743.747
     302	 1.97275	 1.94941	        -3713.16	         2969.71	        -743.447
     303	  1.9696	 1.95887	        -3708.33	         2964.99	        -743.338
     304	 1.97052	 1.95356	        -3709.81	         2966.36	        -743.442
     305	 1.97447	 1.93703	        -3715.94	         2972.29	        -743.647
     306	  1.9793	 1.91681	        -3723.36	         2979.53	        -743.828
     307	 1.98297	 1.90001	        -3728.95	         2985.05	        -743.902
     308	 1.98444	 1.89034	        -3731.12	         2987.25	        -743.867
     309	 1.98373	 1.88773	        -3729.95	         2986.18	        -743.773
     310	 1.98158	  1.8896	        -3726.61	         2982.95	        -743.655
     311	 1.97911	 1.89208	        -3722.78	         2979.25	        -743.533
     312	 1.97757	 1.89084	        -3720.37	         2976.94	        -743.428
     313	 1.97805	 1.88213	        -3721.04	         2977.67	        -743.377
     314	 1.98108	 1.86415	        -3725.64	         2982.21	        -743.424
     315	 1.98621	  1.8386	        -3733.46	          2989.9	        -743.564
     316	  1.9921	  1.8103	        -3742.46	         2998.74	        -743.716
     317	 1.99729	 1.78463	        -3750.33	         3006.53	        -743.808
     318	 2.00088	 1.76487	         -3755.7	          3011.9	        -743.799
     319	 2.00302	 1.75066	        -3758.78	         3015.12	        -743.657
     320	 2.00517	 1.73719	        -3761.77	         3018.35	        -743.424
     321	 2.00947	 1.71707	        -3768.06	         3024.79	        -743.268
     322	 2.01713	 1.68607	        -3779.66	         3036.28	        -743.389
     323	 2.02678	 1.64916	        -3794.52	         3050.76	        -743.759
     324	 2.03482	 1.61942	        -3806.95	         3062.82	        -744.126
     325	 2.03755	    1.61	        -3811.21	         3066.91	        -744.303
     326	 2.03304	 1.62755	        -3804.41	         3060.14	        -744.265
     327	 2.02161	 1.67071	        -3787.07	            3043	        -744.071
     328	  2.0053	 1.73187	        -3762.35	         3018.54	        -743.809
     329	 1.98703	 1.80029	        -3734.66	         2991.13	        -743.532
     330	 1.96993	 1.86436	        -3708.75	         2965.49	        -743.266
     331	 1.95689	 1.91328	        -3689.01	         2945.92	        -743.089
     332	 1.94977	  1.9399	        -3678.31	         2935.24	        -743.071
     333	 1.94883	 1.94306	        -3677.02	         2933.83	        -743.186
     334	 1.95289	 1.92691	        -3683.29	         2939.93	        -743.365
     335	 1.95996	 1.89866	        -3694.08	         2950.53	        -743.553
     336	 1.96788	 1.86625	         -3706.1	         2962.41	         -743.69
     337	 1.97495	 1.83613	        -3716.75	         2973.01	        -743.742
     338	  1.9803	 1.81178	        -3724.76	         2981.04	        -743.724
     339	 1.98384	 1.79394	        -3730.03	         2986.35	        -743.681
     340	  1.9858	 1.78202	        -3732.95	         2989.29	        -743.662
     341	 1.98633	 1.77564	        -3733.77	         2990.09	        -743.684
     342	 1.98534	 1.77518	         -3732.3	          2988.6	         -743.71
     343	 1.98286	 1.78053	        -3728.51	         2984.87	        -743.636
     344	 1.97986	 1.78821	        -3723.81	         2980.38	        -743.431
     345	  1.9783	 1.79113	         -3721.3	         2978.03	        -743.267
     346	 1.97962	 1.78386	        -3723.34	         2980.02	        -743.315
     347	 1.98341	 1.76791	        -3729.24	          2985.7	        -743.538
     348	 1.98756	 1.75068	        -3735.72	         2991.93	        -743.792
     349	 1.98965	 1.74071	        -3739.04	         2995.07	        -743.967
     350	 1.98808	 1.74361	        -3736.71	          2992.7	        -744.012
     351	 1.98265	 1.75992	        -3728.48	         2984.56	        -743.917
     352	 1.97475	 1.78483	        -3716.41	         2972.71	        -743.705
     353	   1.967	 1.80914	        -3704.51	         2961.09	        -743.427
     354	 1.96249	 1.82195	        -3697.58	         2954.32	        -743.259
     355	 1.96297	 1.81692	        -3698.43	         2955.04	        -743.388
     356	 1.96743	 1.79778	        -3705.43	         2961.73	        -743.699
     357	 1.97298	 1.77491	        -3713.99	         2970.06	        -743.935
     358	 1.97716	 1.75718	        -3720.31	         2976.32	        -743.983
     359	 1.97907	 1.74771	        -3723.12	          2979.2	        -743.921
     360	 1.97901	 1.74564	        -3722.95	          2979.1	        -743.857
     361	 1.97751	 1.74913	        -3720.68	         2976.86	        -743.825
     362	 1.97497	 1.75691	        -3716.88	         2973.04	         -743.84
     363	  1.9715	 1.76858	        -3711.65	         2967.84	        -743.811
     364	 1.96772	 1.78219	        -3705.81	         2962.16	         -743.65
     365	 1.96507	 1.79241	         -3701.7	         2958.19	        -743.512
     366	  1.9647	 1.79497	        -3701.17	         2957.64	        -743.525
     367	 1.96645	  1.7905	        -3703.87	         2960.27	        -743.605
     368	 1.96932	 1.78234	        -3708.27	         2964.57	        -743.701
     369	  1.9721	 1.77458	        -3712.54	         2968.74	        -743.806
     370	 1.97358	 1.77137	        -3714.85	         2970.96	        -743.886
     371	 1.97289	 1.77574	        -3713.85	         2969.93	        -743.925
     372	 1.96971	 1.78875	        -3709.05	         2965.15	        -743.901
     373	  1.9645	 1.80877	        -3701.12	         2957.34	        -743.784
     374	 1.95863	 1.83092	        -3692.18	         2948.54	        -743.641
     375	 1.95375	 1.84947	        -3684.75	         2941.21	        -743.538
     376	 1.95109	 1.86019	        -3680.72	         2937.22	        -743.497
     377	 1.95099	  1.8618	        -3680.71	         2937.07	        -743.636
     378	 1.95214	 1.85891	        -3682.69	          2938.8	        -743.888
     379	 1.95235	 1.85953	        -3683.09	         2939.11	        -743.981
     380	  1.9507	 1.86687	        -3680.47	         2936.64	        -743.824
     381	  1.9484	 1.87645	        -3676.78	         2933.18	        -743.603
     382	 1.94724	 1.88158	        -3674.98	         2931.45	        -743.531
     383	 1.94794	 1.87976	        -3676.08	          2932.5	        -743.575
     384	  1.9502	 1.87211	        -3679.47	         2935.88	        -743.583
     385	 1.95377	 1.85932	         -3684.8	         2941.24	        -743.556
     386	 1.95861	 1.84139	        -3692.09	          2948.5	         -743.59
     387	 1.96417	 1.82023	        -3700.52	         2956.85	        -743.673
     388	 1.96957	 1.79915	        -3708.65	         2964.94	        -743.708
     389	  1.9743	 1.78004	        -3715.69	         2972.03	        -743.653
     390	  1.9787	 1.76187	        -3722.16	         2978.63	        -743.532
     391	 1.98369	 1.74158	        -3729.55	         2986.12	        -743.432
     392	 1.98992	  1.7171	        -3738.93	         2995.47	        -743.463
     393	 1.99682	 1.69073	        -3749.45	         3005.82	        -743.637
     394	 2.00254	 1.66936	        -3758.23	         3014.39	        -743.844
     395	 2.00489	 1.66083	         -3761.9	         3017.93	        -743.971
     396	 2.00252	    1.67	        -3758.33	         3014.36	        -743.968
     397	 1.99539	 1.69676	        -3747.51	         3003.67	        -743.838
     398	 1.98484	 1.73613	        -3731.48	         2987.85	        -743.633
     399	 1.97301	 1.78012	        -3713.54	          2970.1	        -743.438
     400	 1.96207	 1.82062	        -3696.98	          2953.7	        -743.286
     401	 1.95384	 1.85088	        -3684.52	         2941.35	        -743.173
     402	 1.94958	 1.86605	         -3678.1	         2934.95	        -743.146
     403	 1.94962	 1.86458	        -3678.25	         2935.02	        -743.233
     404	 1.95326	 1.84894	        -3683.84	         2940.48	         -743.36
     405	 1.95933	 1.82336	        -3693.01	         2949.58	        -743.429
     406	 1.96705	 1.79076	         -3704.6	         2961.16	        -743.436
     407	 1.97609	 1.75258	        -3718.17	         2974.72	        -743.454
     408	 1.98606	 1.71057	        -3733.19	         2989.67	        -743.521
     409	 1.99615	 1.66805	        -3748.44	         3004.82	        -743.621
     410	 2.00528	 1.62924	        -3762.23	          3018.5	        -743.726
     411	 2.01228	  1.5984	        -3772.85	         3029.01	         -743.84
     412	 2.01607	 1.57949	        -3778.62	         3034.69	        -743.934
     413	 2.01609	 1.57473	        -3778.58	         3034.72	         -743.86
     414	 2.01355	 1.58025	        -3774.44	         3030.91	        -743.529
     415	 2.01169	  1.5846	        -3771.34	         3028.12	        -743.223
     416	 2.01313	 1.57816	        -3773.59	         3030.28	        -743.305
     417	 2.01722	 1.56356	        -3779.99	         3036.41	        -743.581
     418	 2.02124	 1.55057	        -3786.21	         3042.45	        -743.755
     419	   2.023	 1.54672	        -3788.93	         3045.09	        -743.839
     420	 2.02127	 1.55616	        -3786.37	         3042.49	        -743.882
     421	 2.01558	  1.5805	        -3777.79	         3033.95	        -743.835
     422	 2.00658	 1.61747	        -3764.11	         3020.46	        -743.646
     423	 1.99628	 1.65984	        -3748.42	         3005.01	        -743.419
     424	 1.98694	 1.69916	        -3734.35	            2991	        -743.346
     425	 1.97959	 1.73166	        -3723.38	         2979.97	        -743.415
     426	 1.97393	 1.75828	        -3714.95	         2971.48	        -743.471
     427	 1.96956	 1.78021	        -3708.39	         2964.92	         -743.47
     428	 1.96646	 1.79733	        -3703.74	         2960.28	        -743.466
     429	 1.96463	 1.80954	        -3701.05	         2957.54	        -743.509
     430	 1.96372	 1.81821	        -3699.73	         2956.17	        -743.565
     431	 1.96325	 1.82517	        -3699.04	         2955.46	        -743.577
     432	 1.96304	 1.83116	        -3698.71	         2955.14	         -743.57
     433	 1.96306	 1.83629	        -3698.77	         2955.18	        -743.594
     434	 1.96311	 1.84143	        -3698.89	         2955.25	        -743.644
     435	 1.96276	 1.84812	        -3698.43	         2954.73	        -743.696
     436	 1.96156	 1.85785	        -3696.69	         2952.92	        -743.765
     437	 1.95892	 1.87242	        -3692.82	         2948.96	        -743.862
     438	 1.95416	 1.89398	        -3685.74	         2941.82	        -743.918
     439	 1.94715	 1.92287	        -3675.13	         2931.32	        -743.817
     440	 1.93923	 1.95432	        -3662.98	         2919.43	        -743.547
     441	 1.93307	 1.97873	        -3653.47	         2910.19	        -743.287
     442	 1.93108	 1.98745	        -3650.45	         2907.21	        -743.237
     443	 1.93373	 1.97905	        -3654.56	         2911.18	        -743.384
     444	 1.93951	 1.95901	        -3663.41	         2919.86	        -743.554
     445	 1.94652	  1.9343	        -3673.99	         2930.37	         -743.62
     446	 1.95362	 1.90898	         -3684.6	         2941.02	        -743.581
     447	 1.96065	 1.88365	        -3695.07	         2951.56	        -743.507
     448	 1.96785	  1.8575	        -3705.85	         2962.37	         -743.48
     449	 1.97519	 1.83075	         -3716.9	         2973.38	        -743.523
     450	 1.98212	 1.80537	        -3727.36	         2983.77	        -743.589
     451	 1.98795	 1.78388	        -3736.15	         2992.52	         -743.63
     452	 1.99224	 1.76783	        -3742.59	         2998.95	        -743.641
     453	 1.99487	 1.75761	        -3746.53	         3002.89	         -743.64
     454	 1.99592	  1.7529	         -3748.1	         3004.47	        -743.628
     455	 1.99569	  1.7527	         -3747.7	         3004.12	        -743.586
     456	 1.99476	 1.75483	        -3746.24	         3002.73	         -743.51
     457	 1.99406	 1.75601	        -3745.12	         3001.67	        -743.448
     458	 1.99432	 1.75345	        -3745.51	         3002.06	        -743.455
     459	 1.99573	 1.74648	        -3747.68	         3004.18	        -743.503
     460	 1.99808	 1.73593	        -3751.24	         3007.71	        -743.529
     461	  2.0012	 1.72244	        -3755.94	         3012.39	        -743.551
     462	 2.00484	 1.70692	        -3761.45	         3017.84	        -743.609
     463	 2.00836	 1.69166	        -3766.83	         3023.12	        -743.701
     464	 2.01079	 1.68016	        -3770.56	         3026.78	        -743.783
     465	 2.01131	 1.67548	        -3771.33	         3027.56	        -743.773
     466	 2.00991	 1.67773	        -3769.12	         3025.45	        -743.675
     467	 2.00729	  1.6843	        -3765.12	         3021.52	        -743.603
     468	 2.00408	 1.69297	        -3760.31	          3016.7	        -743.611
     469	 2.00031	  1.7036	        -3754.71	         3011.05	        -743.664
     470	 1.99578	 1.71693	        -3747.91	         3004.25	        -743.656
     471	 1.99102	 1.73132	         -3740.6	         2997.11	        -743.485
     472	 1.98775	  1.7405	        -3735.54	         2992.21	        -743.337
     473	 1.98724	 1.73963	         -3734.9	         2991.45	        -743.454
     474	  1.9888	 1.73157	        -3737.37	         2993.79	        -743.577
     475	 1.99143	 1.72014	        -3741.24	         2997.73	        -743.508
     476	 1.99545	 1.70407	        -3747.18	         3003.77	        -743.409
     477	 2.00145	 1.68132	        -3756.24	         3012.77	        -743.468
     478	 2.00875	 1.65462	        -3767.36	         3023.71	        -743.646
     479	 2.01551	 1.63071	        -3777.68	         3033.85	        -743.829
     480	 2.01976	 1.61657	        -3784.17	         3040.23	        -743.939
     481	 2.02029	 1.61659	        -3784.94	         3041.02	        -743.924
     482	 2.01709	 1.63067	        -3780.01	         3036.23	        -743.787
     483	  2.0114	 1.65437	        -3771.29	         3027.68	        -743.612
     484	 2.00485	 1.68166	        -3761.36	         3017.87	        -743.493
     485	 1.99872	 1.70788	        -3752.13	         3008.67	        -743.455
     486	 1.99356	 1.73089	         -3744.4	         3000.93	        -743.473
     487	 1.98942	  1.7503	        -3738.21	         2994.71	        -743.495
     488	 1.98634	 1.76584	        -3733.56	         2990.09	        -743.466
     489	 1.98474	 1.77591	        -3731.11	         2987.69	        -743.418
     490	 1.98505	 1.77875	        -3731.64	         2988.17	        -743.476
     491	 1.98681	 1.77595	        -3734.44	          2990.8	        -743.642
     492	 1.98864	 1.77247	        -3737.33	         2993.55	        -743.772
     493	 1.98948	 1.77221	        -3738.58	         2994.81	         -743.77
     494	 1.98936	 1.77512	         -3738.3	         2994.62	        -743.682
     495	 1.98894	 1.77871	        -3737.67	            2994	        -743.672
     496	 1.98828	 1.78291	        -3736.77	         2993.01	        -743.761
     497	 1.98665	  1.7906	        -3734.35	         2990.56	        -743.791
     498	 1.98367	 1.80314	        -3729.82	          2986.1	        -743.719
     499	 1.97989	 1.81871	        -3724.03	         2980.42	        -743.616
     500	 1.97621	 1.83417	        -3718.43	          2974.9	         -743.53
     501	 1.97349	 1.84673	         -3714.3	         2970.82	        -743.483
     502	 1.97214	   1.855	        -3712.32	          2968.8	        -743.527
     503	 1.97171	 1.86052	        -3711.84	         2968.15	        -743.687
     504	 1.97075	  1.8683	        -3710.62	         2966.72	        -743.899
     505	  1.9675	 1.88456	        -3705.84	         2961.83	        -744.008
     506	 1.96128	 1.91165	        -3696.39	         2952.51	        -743.876
     507	 1.95356	 1.94424	        -3684.54	         2940.92	        -743.613
     508	  1.9468	 1.97312	        -3674.29	         2930.79	        -743.499
     509	 1.94231	 1.99346	        -3667.62	         2924.05	        -743.575
     510	 1.93963	 2.00667	        -3663.74	         2920.03	        -743.708
     511	 1.93757	 2.01659	        -3660.77	         2916.95	        -743.823
     512	 1.93514	 2.02649	        -3657.14	          2913.3	        -743.838
     513	 1.93227	 2.03642	        -3652.74	            2909	        -743.744
     514	 1.92985	 2.04303	        -3649.02	         2905.36	        -743.662
     515	 1.92883	 2.04294	        -3647.44	         2903.84	          -743.6
     516	 1.93014	  2.0333	        -3649.27	          2905.8	        -743.476
     517	 1.93489	 2.01024	        -3656.34	         2912.93	        -743.414
     518	 1.94339	 1.97272	        -3669.25	         2925.67	        -743.577
     519	 1.95409	 1.92663	        -3685.51	         2941.73	        -743.782
     520	 1.96503	 1.87952	        -3701.93	         2958.14	        -743.788
     521	 1.97556	 1.83376	        -3717.65	         2973.93	        -743.724
     522	  1.9856	 1.78969	        -3732.76	         2988.99	        -743.763
     523	 1.99444	 1.75034	        -3746.07	         3002.24	         -743.83
     524	 2.00103	 1.71963	           -3756	         3012.14	        -743.859
     525	 2.00471	 1.70011	        -3761.52	         3017.66	        -743.864
     526	 2.00516	 1.69295	        -3762.19	         3018.33	        -743.859
     527	 2.00242	 1.69812	        -3758.02	         3014.21	        -743.809
     528	 1.99715	 1.71331	        -3749.97	         3006.31	        -743.656
     529	 1.99102	 1.73263	        -3740.55	         2997.11	        -743.441
     530	 1.98613	 1.74836	         -3733.1	         2989.78	        -743.322
     531	 1.98372	 1.75594	        -3729.54	         2986.17	        -743.368
     532	 1.98363	   1.756	        -3729.48	         2986.03	        -743.455
     533	 1.98511	 1.75114	        -3731.74	         2988.25	        -743.497
     534	 1.98757	 1.74327	         -3735.5	         2991.94	        -743.559
     535	 1.99022	 1.73512	        -3739.59	         2995.92	         -743.67
     536	 1.99196	 1.73065	        -3742.25	         2998.53	        -743.723
     537	 1.99223	 1.73186	         -3742.6	         2998.93	        -743.664
     538	 1.99144	 1.73713	        -3741.31	         2997.74	        -743.572
     539	 1.99041	 1.74338	        -3739.72	          2996.2	        -743.523
     540	 1.98975	 1.74838	        -3738.73	         2995.22	        -743.511
     541	 1.98981	 1.75088	         -3738.8	         2995.31	        -743.494
     542	 1.99091	 1.74967	        -3740.43	         2996.95	        -743.481
     543	 1.99317	 1.74409	         -3743.9	         3000.35	        -743.555
     544	 1.99591	 1.73646	         -3748.2	         3004.45	        -743.745
     545	 1.99748	 1.73258	        -3750.74	         3006.81	        -743.925
     546	 1.99639	 1.73776	        -3749.13	         3005.18	        -743.951
     547	 1.99249	 1.75245	        -3743.14	         2999.32	        -743.827
     548	 1.98704	 1.77203	        -3734.77	         2991.14	         -743.63
     549	 1.98205	 1.78939	        -3727.12	         2983.66	        -743.463
     550	 1.97914	 1.79859	        -3722.76	         2979.29	        -743.467
     551	 1.97842	 1.79915	        -3721.85	         2978.22	         -743.63
     552	 1.97868	 1.79555	        -3722.35	         2978.61	        -743.745
     553	 1.97896	 1.79122	        -3722.72	         2979.03	        -743.695
     554	 1.97953	 1.78514	        -3723.49	         2979.88	        -743.612
     555	 1.98085	 1.77551	        -3725.53	         2981.86	        -743.669
     556	 1.98234	 1.76458	         -3727.9	          2984.1	        -743.797
     557	 1.98287	 1.75661	        -3728.72	          2984.9	        -743.826
     558	 1.98213	 1.75279	        -3727.51	         2983.78	         -743.73
     559	 1.98092	 1.75028	        -3725.59	         2981.97	        -743.621
     560	 1.98025	 1.74562	        -3724.58	         2980.96	         -743.62
     561	 1.98027	 1.73845	        -3724.69	            2981	        -743.694
     562	 1.98049	 1.73078	        -3725.07	         2981.33	        -743.741
     563	 1.98054	 1.72389	        -3725.12	         2981.39	        -743.727
     564	 1.98069	 1.71691	        -3725.23	         2981.63	        -743.607
     565	 1.98217	 1.70558	        -3727.27	         2983.84	        -743.431
     566	 1.98642	 1.68459	        -3733.62	         2990.22	        -743.401
     567	 1.99364	 1.65338	        -3744.56	         3001.04	         -743.52
     568	 2.00258	  1.6166	        -3758.09	         3014.46	        -743.629
     569	 2.01176	 1.57954	        -3771.93	         3028.23	        -743.703
     570	 2.01992	 1.54669	        -3784.25	         3040.47	        -743.781
     571	 2.02589	 1.52233	         -3793.3	         3049.42	        -743.884
     572	 2.02843	 1.51083	        -3797.24	         3053.24	            -744
     573	 2.02656	 1.51587	        -3794.46	         3050.43	        -744.036
     574	 2.02024	 1.53766	        -3784.86	         3040.94	        -743.917
     575	 2.01088	 1.57106	        -3770.63	          3026.9	        -743.726
     576	 2.00064	  1.6083	        -3755.12	         3011.55	        -743.575
     577	  1.9914	 1.64274	        -3741.17	         2997.69	        -743.477
     578	 1.98444	 1.66987	        -3730.67	         2987.25	        -743.426
     579	 1.98039	 1.68741	        -3724.61	         2981.17	         -743.44
     580	 1.97907	 1.69588	        -3722.74	         2979.19	        -743.552
     581	 1.97935	 1.69922	        -3723.34	         2979.62	        -743.725
     582	 1.97953	 1.70343	        -3723.77	         2979.89	         -743.88
     583	 1.97803	 1.71385	         -3721.6	         2977.64	        -743.962
     584	 1.97413	 1.73284	        -3715.68	         2971.78	        -743.899
     585	 1.96858	 1.75759	        -3707.12	         2963.46	         -743.66
     586	 1.96376	 1.77944	        -3699.58	         2956.23	        -743.343
     587	 1.96259	 1.78779	        -3697.66	         2954.48	        -743.186
     588	 1.96639	 1.77766	         -3703.5	         2960.17	        -743.327
     589	 1.97375	   1.754	        -3714.84	         2971.22	        -743.622
     590	 1.98175	 1.72725	        -3727.05	         2983.21	        -743.837
     591	 1.98808	 1.70564	        -3736.56	         2992.71	        -743.851
     592	 1.99232	 1.69088	        -3742.77	         2999.07	        -743.699
     593	 1.99556	 1.67931	         -3747.5	         3003.93	        -743.572
     594	 1.99874	 1.66779	        -3752.31	          3008.7	        -743.606
     595	 2.00154	 1.65791	         -3756.6	          3012.9	        -743.703
     596	 2.00296	 1.65345	        -3758.79	         3015.02	        -743.764
     597	 2.00225	 1.65718	        -3757.75	         3013.96	        -743.786
     598	 1.99913	 1.67021	        -3753.06	         3009.28	        -743.773
     599	 1.99375	 1.69206	        -3744.95	         3001.22	        -743.733
     600	 1.98659	 1.72104	        -3734.18	         2990.48	          -743.7
     601	 1.97811	 1.75528	        -3721.47	         2977.76	        -743.715
     602	 1.96848	 1.79393	        -3707.05	         2963.31	        -743.736
     603	 1.95802	 1.83569	        -3691.25	         2947.61	        -743.636
     604	  1.9481	  1.8754	        -3676.14	         2932.74	        -743.401
     605	 1.94127	 1.90386	        -3665.65	          2922.5	        -743.154
     606	 1.94011	 1.91187	        -3663.76	         2920.75	        -743.015
     607	 1.94596	  1.8947	        -3672.61	         2929.52	        -743.087
     608	 1.95787	 1.85572	        -3690.82	         2947.39	        -743.426
     609	 1.97233	 1.80761	        -3712.95	         2969.08	        -743.867
     610	 1.98483	 1.76673	        -3731.98	         2987.83	        -744.153
     611	 1.99216	 1.74469	        -3743.03	         2998.83	        -744.197
     612	 1.99346	 1.74472	        -3744.86	         3000.78	        -744.078
     613	 1.98964	 1.76369	        -3738.98	         2995.05	        -743.929
     614	 1.98219	 1.79625	        -3727.71	         2983.87	        -743.844
     615	 1.97228	 1.83797	        -3712.82	         2969.01	        -743.808
     616	 1.96085	 1.88526	        -3695.58	         2951.87	        -743.713
     617	 1.94937	 1.93252	        -3678.13	         2934.64	        -743.491
     618	 1.94027	 1.97063	        -3664.23	            2921	        -743.232
     619	 1.93609	 1.99015	        -3657.86	         2914.72	        -743.142
     620	 1.93767	 1.98781	         -3660.4	         2917.09	        -743.311
     621	 1.94348	 1.96913	        -3669.39	         2925.81	        -743.583
     622	 1.95093	 1.94358	        -3680.73	         2936.98	        -743.747
     623	 1.95817	 1.91785	        -3691.63	         2947.85	        -743.778
     624	 1.96451	 1.89453	        -3701.17	         2957.36	        -743.807
     625	 1.96953	 1.87533	        -3708.74	         2964.88	        -743.856
     626	 1.97293	 1.86167	        -3713.77	         2969.98	        -743.797
     627	 1.97537	 1.85138	        -3717.26	         2973.65	        -743.616
     628	 1.97845	 1.83873	        -3721.76	         2978.27	        -743.488
     629	 1.98321	 1.81996	        -3728.96	          2985.4	        -743.564
     630	 1.98887	 1.79783	        -3737.67	         2993.89	        -743.777
     631	 1.99347	 1.77952	        -3744.71	          3000.8	        -743.911
     632	 1.99569	 1.76995	        -3747.98	         3004.12	        -743.855
     633	 1.99582	 1.76816	        -3748.03	         3004.31	        -743.713
     634	 1.99491	 1.77039	        -3746.65	         3002.95	        -743.699
     635	 1.99309	 1.77632	        -3744.05	         3000.23	         -743.82
     636	 1.98953	 1.78919	        -3738.75	         2994.88	        -743.861
     637	 1.98397	 1.80981	        -3730.33	         2986.54	        -743.789
     638	 1.97712	 1.83527	        -3720.01	         2976.27	        -743.743
     639	 1.96975	 1.86274	        -3708.95	         2965.22	        -743.731
     640	 1.96241	 1.89014	        -3697.87	          2954.2	        -743.675
     641	 1.95596	 1.91416	        -3688.07	         2944.53	        -743.536
     642	   1.952	 1.92906	        -3681.92	         2938.59	        -743.329
     643	  1.9524	 1.92785	        -3682.42	         2939.18	        -743.241
     644	 1.95794	 1.90761	        -3690.81	          2947.5	        -743.318
     645	 1.96789	 1.87109	        -3705.86	         2962.43	        -743.435
     646	 1.98078	 1.82348	        -3725.35	         2981.76	        -743.592
     647	 1.99465	 1.77175	        -3746.36	         3002.56	        -743.798
     648	 2.00719	 1.72433	        -3765.34	         3021.38	        -743.965
     649	 2.01653	 1.68814	        -3779.41	         3035.39	        -744.023
     650	 2.02191	 1.66614	         -3787.4	         3043.45	        -743.955
     651	  2.0239	 1.65656	         -3790.2	         3046.43	        -743.767
     652	 2.02433	 1.65325	        -3790.58	         3047.08	        -743.507
     653	 2.02561	 1.64784	        -3792.33	            3049	        -743.325
     654	 2.02931	  1.6348	        -3797.92	         3054.55	        -743.365
     655	   2.035	 1.61586	        -3806.63	         3063.09	        -743.539
     656	 2.04098	 1.59729	         -3815.7	         3072.06	        -743.634
     657	 2.04598	 1.58364	        -3823.19	         3079.56	        -743.631
     658	 2.04946	 1.57663	        -3828.44	         3084.78	        -743.662
     659	  2.0508	  1.5785	        -3830.54	         3086.78	         -743.76
     660	 2.04894	 1.59293	        -3827.84	         3083.99	        -743.849
     661	 2.04299	 1.62286	        -3818.95	         3075.08	        -743.875
     662	 2.03277	 1.66865	        -3803.58	         3059.74	        -743.839
     663	 2.01877	 1.72795	        -3782.51	         3038.74	        -743.774
     664	   2.002	 1.79669	        -3757.28	         3013.59	        -743.695
     665	 1.98385	 1.86951	        -3729.93	         2986.36	        -743.568
     666	 1.96632	 1.93894	        -3703.42	         2960.07	        -743.353
     667	 1.95212	 1.99508	        -3681.93	         2938.76	        -743.167
     668	 1.94341	 2.02978	        -3668.91	          2925.7	        -743.208
     669	 1.94031	 2.04262	        -3664.48	         2921.05	        -743.425
     670	 1.94112	 2.03966	        -3665.91	         2922.27	        -743.641
     671	 1.94388	 2.02794	        -3670.15	         2926.41	        -743.739
     672	 1.94752	 2.01137	        -3675.59	         2931.87	        -743.721
     673	 1.95192	  1.9906	        -3682.15	         2938.47	        -743.674
     674	 1.95727	 1.96538	        -3690.13	          2946.5	        -743.633
     675	 1.96362	  1.9359	        -3699.65	         2956.02	         -743.63
     676	 1.97059	 1.90384	        -3710.14	         2966.47	        -743.673
     677	 1.97739	  1.8723	        -3720.35	         2976.68	         -743.67
     678	  1.9836	 1.84309	        -3729.59	         2985.98	        -743.605
     679	 1.98927	 1.81608	        -3738.06	         2994.49	        -743.563
     680	 1.99441	 1.79139	        -3745.79	          3002.2	         -743.59
     681	 1.99859	 1.77067	        -3752.12	         3008.48	        -743.645
     682	 2.00127	 1.75599	        -3756.16	         3012.49	         -743.67
     683	 2.00226	 1.74805	        -3757.62	         3013.98	         -743.64
     684	 2.00196	 1.74553	        -3757.13	         3013.53	        -743.596
     685	 2.00095	 1.74637	         -3755.6	         3012.01	        -743.586
     686	  1.9996	  1.7493	         -3753.6	         3009.98	        -743.616
     687	 1.99795	 1.75414	        -3751.16	         3007.51	        -743.653
     688	 1.99604	 1.76079	        -3748.29	         3004.64	        -743.653
     689	   1.994	 1.76843	        -3745.28	         3001.59	        -743.692
     690	  1.9916	 1.77764	        -3741.75	         2997.98	        -743.768
     691	 1.98831	 1.79015	         -3736.8	         2993.05	        -743.743
     692	 1.98432	 1.80507	        -3730.67	         2987.06	        -743.607
     693	 1.98075	 1.81815	        -3725.15	         2981.72	        -743.427
     694	 1.97913	 1.82394	        -3722.59	         2979.29	        -743.306
     695	 1.98043	 1.81901	        -3724.53	         2981.23	          -743.3
     696	 1.98452	  1.8039	        -3730.79	         2987.37	        -743.418
     697	 1.99008	 1.78338	        -3739.35	         2995.71	        -743.639
     698	 1.99493	 1.76523	        -3746.84	         3002.98	        -743.856
     699	 1.99711	 1.75661	        -3750.16	         3006.25	        -743.907
     700	 1.99631	 1.75883	        -3748.79	         3005.06	        -743.728
     701	 1.99427	 1.76585	        -3745.48	            3002	        -743.479
     702	  1.9933	 1.76949	        -3743.92	         3000.54	        -743.379
     703	 1.99433	 1.76649	        -3745.58	         3002.08	          -743.5
     704	 1.99621	  1.7609	        -3748.64	         3004.91	        -743.726
     705	  1.9968	 1.76023	        -3749.68	         3005.79	        -743.888
     706	 1.99453	 1.76986	        -3746.28	         3002.38	        -743.902
     707	 1.98937	  1.7897	        -3738.39	         2994.64	        -743.744
     708	 1.98308	 1.81352	        -3728.68	         2985.21	        -743.475
     709	 1.97834	 1.83161	        -3721.41	          2978.1	        -743.304
     710	  1.9769	 1.83751	        -3719.33	         2975.94	         -743.39
     711	 1.97828	  1.8329	        -3721.59	         2978.01	        -743.583
     712	 1.98092	  1.8234	        -3725.64	         2981.97	        -743.673
     713	 1.98388	 1.81219	        -3730.06	          2986.4	        -743.651
     714	  1.9871	 1.79935	        -3734.86	         2991.24	        -743.628
     715	 1.99062	 1.78475	        -3740.18	         2996.52	        -743.661
     716	 1.99405	 1.76993	        -3745.38	         3001.66	        -743.725
     717	 1.99673	  1.7573	        -3749.45	         3005.69	         -743.76
     718	 1.99833	 1.74833	        -3751.81	         3008.08	        -743.726
     719	 1.99912	 1.74227	        -3752.92	         3009.27	        -743.643
     720	 1.99984	 1.73679	        -3753.93	         3010.34	        -743.586
     721	 2.00099	 1.73027	         -3755.7	         3012.08	        -743.623
     722	 2.00234	 1.72378	        -3757.83	         3014.09	        -743.734
     723	 2.00306	 1.72038	        -3758.98	         3015.18	        -743.806
     724	 2.00274	 1.72168	        -3758.43	          3014.7	        -743.732
     725	 2.00211	 1.72507	        -3757.33	         3013.76	        -743.577
     726	 2.00237	 1.72603	        -3757.69	         3014.15	        -743.549
     727	  2.0036	 1.72413	        -3759.66	         3015.99	        -743.664
     728	 2.00464	 1.72356	        -3761.31	         3017.55	        -743.754
     729	 2.00438	 1.72807	        -3760.91	         3017.16	        -743.752
     730	 2.00248	 1.73859	        -3758.01	         3014.31	        -743.705
     731	 1.99915	 1.75421	        -3752.98	         3009.31	        -743.667
     732	 1.99465	 1.77381	        -3746.22	         3002.57	        -743.651
     733	 1.98921	 1.79653	        -3738.03	          2994.4	        -743.628
     734	 1.98315	 1.82098	         -3728.9	         2985.31	        -743.584
     735	 1.97707	  1.8449	        -3719.72	         2976.19	        -743.532
     736	  1.9717	 1.86556	        -3711.62	         2968.14	        -743.481
     737	 1.96788	 1.87997	        -3705.82	         2962.41	        -743.407
     738	 1.96661	 1.88468	        -3703.84	          2960.5	         -743.34
     739	  1.9686	 1.87705	        -3706.88	         2963.49	        -743.388
     740	 1.97352	 1.85841	         -3714.4	         2970.86	        -743.537
     741	 1.97999	 1.83376	        -3724.27	         2980.57	        -743.694
     742	 1.98636	 1.80898	        -3733.98	         2990.13	        -743.842
     743	 1.99111	 1.78952	        -3741.18	         2997.25	        -743.926
     744	 1.99338	 1.77858	        -3744.54	         3000.66	        -743.875
     745	 1.99351	 1.77506	        -3744.59	         3000.85	        -743.741
     746	 1.99251	 1.77528	        -3743.01	         2999.36	        -743.654
     747	 1.99108	 1.77682	        -3740.86	         2997.21	        -743.651
     748	 1.98922	 1.77977	        -3738.06	         2994.42	        -743.643
     749	 1.98697	 1.78404	        -3734.59	         2991.04	        -743.551
     750	 1.98501	 1.78715	        -3731.52	          2988.1	        -743.425
     751	 1.98433	 1.78563	        -3730.46	         2987.09	        -743.372
     752	 1.98533	 1.77826	        -3732.03	         2988.59	        -743.445
     753	 1.98727	 1.76786	        -3735.12	          2991.5	        -743.623
     754	 1.98847	 1.76057	        -3737.13	          2993.3	        -743.835
     755	 1.98703	 1.76324	        -3735.09	         2991.13	        -743.966
     756	 1.98191	  1.7796	        -3727.35	         2983.45	        -743.902
     757	 1.97392	 1.80677	        -3715.14	         2971.46	        -743.672
     758	 1.96533	 1.83637	        -3702.04	         2958.58	        -743.463
     759	 1.95833	 1.86034	        -3691.48	         2948.08	        -743.405
     760	  1.9539	 1.87502	        -3684.89	         2941.44	        -743.453
     761	 1.95205	 1.88027	        -3682.18	         2938.66	        -743.518
     762	 1.95247	 1.87691	        -3682.87	          2939.3	        -743.571
     763	 1.95493	 1.86574	        -3686.58	         2942.99	        -743.596
     764	 1.95933	  1.8472	        -3693.15	         2949.59	        -743.563
     765	 1.96592	 1.82065	        -3702.96	         2959.47	        -743.492
     766	 1.97498	 1.78532	        -3716.56	         2973.06	        -743.503
     767	 1.98593	 1.74353	        -3733.14	         2989.48	        -743.657
     768	 1.99693	 1.70228	        -3749.85	         3005.98	        -743.871
     769	  2.0056	 1.67033	        -3763.02	         3018.99	        -744.031
     770	 2.01012	  1.6543	        -3769.87	         3025.77	        -744.095
     771	 2.00968	 1.65701	        -3769.19	         3025.11	        -744.086
     772	 2.00437	   1.678	        -3761.15	         3017.14	        -744.018
     773	 1.99505	 1.71392	        -3747.03	         3003.17	        -743.865
     774	 1.98348	 1.75828	        -3729.45	          2985.8	        -743.645
     775	 1.97199	 1.80232	           -3712	         2968.57	        -743.428
     776	 1.96291	 1.83745	        -3698.22	         2954.95	        -743.269
     777	 1.95796	 1.85734	        -3690.72	         2947.52	        -743.194
     778	 1.95795	 1.85901	        -3690.71	         2947.51	        -743.203
     779	 1.96272	 1.84308	        -3697.95	         2954.66	        -743.289
     780	 1.97123	 1.81342	        -3710.86	         2967.43	        -743.431
     781	 1.98186	 1.77617	        -3726.96	         2983.38	        -743.578
     782	 1.99284	 1.73803	        -3743.55	         2999.85	        -743.701
     783	 2.00262	 1.70495	        -3758.31	         3014.52	        -743.794
     784	 2.00999	 1.68161	         -3769.4	         3025.58	        -743.824
     785	 2.01444	 1.67023	        -3776.02	         3032.25	        -743.765
     786	 2.01624	 1.66997	        -3778.64	         3034.95	        -743.696
     787	 2.01581	 1.67917	        -3778.02	         3034.31	        -743.712
     788	 2.01304	 1.69814	        -3773.94	         3030.14	        -743.794
     789	 2.00737	 1.72855	        -3765.47	         3021.64	        -743.833
     790	 1.99875	 1.77029	        -3752.46	         3008.71	         -743.75
     791	 1.98817	  1.8193	        -3736.44	         2992.84	        -743.601
     792	  1.9772	  1.8695	        -3719.89	         2976.39	        -743.505
     793	 1.96699	 1.91639	        -3704.55	         2961.07	        -743.475
     794	 1.95808	 1.95773	        -3691.17	         2947.71	        -743.457
     795	  1.9508	 1.99201	        -3680.22	         2936.79	        -743.434
     796	 1.94545	 2.01783	        -3672.19	         2928.77	        -743.421
     797	 1.94227	 2.03418	        -3667.41	         2923.99	         -743.42
     798	 1.94135	 2.04056	        -3666.03	         2922.61	        -743.421
     799	 1.94276	 2.03675	        -3668.14	         2924.72	        -743.421
     800	 1.94646	 2.02285	        -3673.72	         2930.28	        -743.442
     801	 1.95216	 1.99995	        -3682.35	         2938.83	        -743.514
     802	 1.95905	 1.97103	         -3692.8	         2949.16	        -743.644
     803	 1.96582	 1.94083	        -3703.09	         2959.31	        -743.781
     804	 1.97123	 1.91402	        -3711.26	         2967.44	        -743.825
     805	 1.97504	 1.89189	        -3716.85	         2973.15	          -743.7
     806	  1.9785	 1.87031	        -3721.82	         2978.34	        -743.481
     807	  1.9836	 1.84245	        -3729.35	         2985.99	        -743.362
     808	 1.99136	 1.80491	        -3741.08	         2997.63	        -743.444
     809	 2.00089	 1.76106	        -3755.58	         3011.93	        -743.655
     810	 2.01009	  1.7186	        -3769.52	         3025.72	        -743.802
     811	 2.01729	 1.68347	        -3780.31	         3036.52	        -743.793
     812	 2.02225	  1.6565	        -3787.65	         3043.96	        -743.682
     813	 2.02582	 1.63478	        -3792.86	         3049.31	         -743.55
     814	 2.02919	 1.61414	        -3797.81	         3054.37	        -743.439
     815	  2.0334	 1.59101	        -3804.08	         3060.69	        -743.387
     816	 2.03891	 1.56388	        -3812.38	         3068.95	        -743.422
     817	 2.04534	 1.53421	        -3822.11	         3078.59	        -743.517
     818	 2.05171	 1.50567	        -3831.77	         3088.16	        -743.608
     819	 2.05702	 1.48214	         -3839.8	         3096.11	        -743.682
     820	 2.06035	 1.46698	        -3844.89	         3101.11	        -743.772
     821	 2.06079	 1.46366	        -3845.66	         3101.77	        -743.887
     822	 2.05739	 1.47566	        -3840.65	         3096.68	        -743.969
     823	 2.04977	 1.50458	        -3829.16	         3085.24	        -743.923
     824	 2.03877	 1.54741	        -3812.49	         3068.75	        -743.742
     825	 2.02628	 1.59709	        -3793.66	         3050.01	        -743.647
     826	 2.01353	 1.64882	        -3774.58	         3030.88	        -743.696
     827	 2.00075	 1.70166	        -3755.37	         3011.72	        -743.649
     828	 1.98873	 1.75233	        -3737.17	         2993.68	        -743.494
     829	 1.97889	 1.79497	        -3722.35	         2978.93	        -743.418
     830	 1.97216	 1.82618	         -3712.2	         2968.82	        -743.384
     831	 1.96887	 1.84455	        -3707.23	          2963.9	        -743.336
     832	 1.96922	 1.84917	        -3707.78	         2964.42	        -743.367
     833	 1.97264	 1.84185	        -3713.04	         2969.55	        -743.494
     834	 1.97774	 1.82751	        -3720.82	          2977.2	        -743.612
     835	 1.98316	 1.81104	        -3728.96	         2985.33	        -743.632
     836	 1.98834	 1.79439	        -3736.66	          2993.1	        -743.558
     837	 1.99359	  1.7766	        -3744.44	         3000.97	        -743.475
     838	  1.9993	  1.7563	        -3753.02	         3009.54	        -743.476
     839	 2.00527	 1.73458	        -3762.06	         3018.49	        -743.566
     840	 2.01054	 1.71507	        -3770.07	          3026.4	        -743.663
     841	 2.01417	  1.7015	        -3775.53	         3031.84	        -743.693
     842	 2.01578	 1.69534	        -3777.92	         3034.25	        -743.665
     843	 2.01558	 1.69592	        -3777.59	         3033.95	        -743.633
     844	 2.01392	 1.70205	        -3775.11	         3031.47	        -743.634
     845	   2.011	 1.71306	        -3770.73	         3027.08	        -743.649
     846	 2.00696	 1.72832	        -3764.66	         3021.03	        -743.629
     847	 2.00235	  1.7459	        -3757.67	         3014.11	        -743.554
     848	 1.99814	 1.76216	        -3751.28	          3007.8	        -743.481
     849	 1.99526	 1.77369	        -3746.96	         3003.48	        -743.483
     850	 1.99393	 1.77954	        -3745.05	         3001.49	         -743.56
     851	 1.99365	 1.78141	        -3744.72	         3001.06	        -743.658
     852	 1.99362	 1.78202	        -3744.74	         3001.02	        -743.714
     853	 1.99338	   1.783	        -3744.36	         3000.65	        -743.704
     854	 1.99294	  1.7842	        -3743.66	         2999.99	        -743.667
     855	 1.99263	 1.78461	        -3743.13	         2999.52	        -743.605
     856	 1.99296	  1.7826	        -3743.54	         3000.02	        -743.515
     857	 1.99448	  1.7763	         -3745.8	         3002.31	        -743.487
     858	 1.99713	 1.76604	        -3749.86	         3006.28	         -743.58
     859	 1.99981	 1.75583	        -3754.02	         3010.31	        -743.715
     860	 2.00117	 1.75072	        -3756.11	         3012.34	        -743.775
     861	 2.00049	  1.7532	        -3755.08	         3011.32	        -743.756
     862	 1.99786	 1.76287	        -3751.11	         3007.37	        -743.736
     863	 1.99357	 1.77854	        -3744.67	         3000.95	        -743.724
     864	 1.98802	 1.79868	         -3736.3	         2992.62	        -743.671
     865	   1.982	 1.82025	        -3727.15	         2983.59	        -743.562
     866	 1.97682	 1.83835	        -3719.22	         2975.81	         -743.41
     867	 1.97412	 1.84701	        -3715.03	         2971.77	         -743.26
     868	 1.97541	  1.8409	        -3716.88	          2973.7	        -743.187
     869	 1.98128	 1.81789	        -3725.76	         2982.51	        -743.251
     870	 1.99095	 1.78084	        -3740.46	         2997.02	        -743.442
     871	 2.00239	 1.73712	        -3757.85	         3014.18	        -743.678
     872	 2.01312	 1.69561	        -3774.12	         3030.27	         -743.85
     873	 2.02128	 1.66309	        -3786.41	          3042.5	        -743.905
     874	 2.02615	 1.64215	        -3793.66	         3049.82	        -743.847
     875	 2.02822	  1.6313	        -3796.64	         3052.92	        -743.725
     876	 2.02856	  1.6268	        -3797.08	         3053.43	        -743.654
     877	 2.02779	 1.62643	           -3796	         3052.27	        -743.726
     878	  2.0254	 1.63207	        -3792.54	         3048.68	        -743.857
     879	  2.0205	 1.64698	        -3785.18	         3041.33	        -743.849
     880	 2.01351	 1.66972	        -3774.48	         3030.86	        -743.623
     881	 2.00679	 1.69188	        -3764.11	         3020.77	        -743.339
     882	 2.00324	 1.70307	        -3758.65	         3015.45	        -743.196
     883	 2.00444	 1.69771	        -3760.57	         3017.25	        -743.312
     884	 2.00939	 1.67921	        -3768.31	         3024.67	        -743.644
     885	 2.01516	 1.65807	        -3777.18	         3033.32	        -743.861
     886	 2.01955	 1.64211	        -3783.74	         3039.91	        -743.825
     887	 2.02236	 1.63179	        -3787.86	         3044.13	        -743.722
     888	 2.02422	 1.62494	         -3790.6	         3046.92	        -743.677
     889	 2.02549	 1.62057	        -3792.46	         3048.82	        -743.643
     890	 2.02641	 1.61804	        -3793.78	         3050.21	        -743.576
     891	 2.02743	 1.61594	        -3795.26	         3051.74	        -743.517
     892	 2.02883	 1.61338	        -3797.38	         3053.83	        -743.548
     893	  2.0301	 1.61224	         -3799.4	         3055.73	        -743.669
     894	 2.03001	   1.617	         -3799.4	         3055.61	        -743.796
     895	 2.02734	 1.63203	        -3795.46	          3051.6	        -743.866
     896	 2.02146	 1.65939	        -3786.64	         3042.78	        -743.862
     897	  2.0126	 1.69811	        -3773.28	         3029.48	        -743.798
     898	 2.00163	  1.7447	        -3756.75	         3013.04	        -743.714
     899	 1.98977	 1.79456	        -3738.88	         2995.25	        -743.634
     900	 1.97834	 1.84277	        -3721.61	         2978.09	        -743.513
     901	 1.96898	 1.88329	        -3707.41	         2964.06	        -743.353
     902	 1.96341	 1.90972	           -3699	          2955.7	        -743.301
     903	 1.96219	 1.91981	         -3697.3	         2953.87	         -743.43
     904	 1.96419	 1.91759	        -3700.49	         2956.87	        -743.615
     905	 1.96751	 1.90977	         -3705.6	         2961.86	        -743.744
     906	 1.97061	 1.90182	        -3710.29	          2966.5	        -743.788
     907	 1.97275	 1.89652	        -3713.46	         2969.71	        -743.747
     908	 1.97403	 1.89372	        -3715.29	         2971.63	        -743.662
     909	   1.975	 1.89163	        -3716.69	         2973.08	        -743.611
     910	   1.976	 1.88917	        -3718.22	         2974.58	        -743.637
     911	  1.9768	 1.88729	         -3719.5	         2975.79	        -743.707
     912	 1.97688	 1.88803	        -3719.65	          2975.9	        -743.749
     913	 1.97593	  1.8925	        -3718.24	         2974.49	         -743.75
     914	 1.97404	 1.90045	         -3715.4	         2971.64	        -743.754
     915	 1.97134	 1.91142	        -3711.35	          2967.6	        -743.749
     916	 1.96808	 1.92457	        -3706.43	         2962.71	         -743.72
     917	 1.96467	 1.93836	        -3701.27	         2957.59	        -743.682
     918	 1.96161	 1.95099	        -3696.64	         2953.01	        -743.635
     919	 1.95937	 1.96068	        -3693.28	         2949.65	        -743.629
     920	 1.95797	 1.96717	        -3691.25	         2947.53	        -743.712
     921	 1.95669	 1.97288	        -3689.43	         2945.63	        -743.799
     922	 1.95486	  1.9803	        -3686.65	         2942.88	        -743.767
     923	 1.95282	 1.98826	        -3683.42	         2939.81	        -743.602
     924	 1.95206	 1.99145	        -3682.08	         2938.68	        -743.401
     925	 1.95435	 1.98367	        -3685.42	         2942.11	        -743.312
     926	 1.96035	 1.96262	        -3694.53	         2951.12	        -743.413
     927	 1.96898	 1.93236	        -3707.69	         2964.06	        -743.629
     928	 1.97797	   1.901	        -3721.37	         2977.54	        -743.833
     929	 1.98507	 1.87653	        -3732.15	          2988.2	        -743.949
     930	 1.98892	 1.86377	        -3737.92	         2993.97	        -743.943
     931	 1.98944	 1.86304	        -3738.57	         2994.75	        -743.818
     932	 1.98778	  1.8702	        -3735.89	         2992.26	        -743.632
     933	 1.98575	 1.87878	        -3732.71	         2989.21	        -743.497
     934	 1.98472	 1.88372	        -3731.17	         2987.66	        -743.505
     935	 1.98485	 1.88435	        -3731.46	         2987.86	          -743.6
     936	 1.98553	 1.88278	        -3732.53	         2988.89	        -743.641
     937	 1.98643	 1.88007	        -3733.84	         2990.22	         -743.62
     938	 1.98755	 1.87587	        -3735.57	         2991.92	        -743.654
     939	 1.98854	 1.87152	        -3737.15	         2993.39	        -743.752
     940	 1.98853	 1.87023	        -3737.19	         2993.38	         -743.81
     941	 1.98699	 1.87394	        -3734.86	         2991.07	        -743.791
     942	 1.98409	 1.88204	        -3730.46	         2986.72	        -743.734
     943	 1.98047	 1.89231	        -3724.96	         2981.29	        -743.667
     944	 1.97691	 1.90203	        -3719.56	         2975.95	        -743.602
     945	 1.97414	 1.90859	        -3715.36	          2971.8	        -743.557
     946	  1.9727	 1.91014	        -3713.15	         2969.64	        -743.511
     947	 1.97308	 1.90501	        -3713.65	          2970.2	        -743.445
     948	 1.97579	 1.89132	        -3717.68	         2974.28	        -743.407
     949	 1.98104	 1.86837	        -3725.61	         2982.15	        -743.454
     950	 1.98823	 1.83834	        -3736.51	         2992.93	        -743.583
     951	 1.99597	  1.8061	        -3748.28	         3004.55	        -743.732
     952	 2.00273	 1.77725	        -3758.51	         3014.68	        -743.823
     953	 2.00748	 1.75543	        -3765.63	         3021.81	         -743.82
     954	  2.0101	  1.7412	        -3769.49	         3025.74	        -743.746
     955	  2.0112	 1.73261	        -3771.02	         3027.39	        -743.635
     956	 2.01173	 1.72647	        -3771.74	         3028.19	         -743.55
     957	 2.01241	 1.72046	        -3772.76	          3029.2	        -743.559
     958	 2.01314	 1.71507	        -3773.93	         3030.29	        -743.637
     959	 2.01324	  1.7129	        -3774.17	         3030.45	         -743.72
     960	 2.01198	 1.71663	        -3772.35	         3028.56	        -743.789
     961	 2.00881	  1.7281	        -3767.63	         3023.81	        -743.828
     962	 2.00354	  1.7479	        -3759.74	          3015.9	        -743.844
     963	  1.9962	 1.77555	        -3748.75	         3004.89	        -743.855
     964	   1.987	 1.81001	        -3734.89	         2991.08	        -743.809
     965	 1.97669	 1.84816	        -3719.27	         2975.62	        -743.653
     966	 1.96711	 1.88316	        -3704.63	         2961.25	        -743.385
     967	 1.96103	 1.90484	        -3695.24	         2952.13	        -743.112
     968	 1.96104	 1.90368	        -3695.18	         2952.14	        -743.042
     969	 1.96776	  1.8774	        -3705.46	         2962.23	        -743.224
     970	 1.97946	 1.83254	        -3723.27	         2979.77	        -743.493
     971	 1.99327	 1.77961	        -3744.22	         3000.49	        -743.732
     972	 2.00641	 1.72882	        -3764.15	          3020.2	        -743.948
     973	 2.01645	 1.68915	        -3779.39	         3035.27	        -744.129
     974	 2.02158	 1.66746	        -3787.16	         3042.96	        -744.201
     975	 2.02122	 1.66604	        -3786.52	         3042.41	        -744.113
     976	 2.01639	 1.68126	        -3779.09	         3035.18	        -743.916
     977	 2.00928	 1.70534	        -3768.21	         3024.51	        -743.707
     978	 2.00225	 1.72969	        -3757.52	         3013.97	         -743.55
     979	 1.99713	 1.74765	        -3749.78	         3006.29	        -743.492
     980	 1.99461	  1.7564	        -3746.05	          3002.5	        -743.559
     981	 1.99412	 1.75775	        -3745.42	         3001.77	        -743.655
     982	 1.99475	 1.75501	        -3746.35	         3002.71	        -743.643
     983	  1.9963	 1.74894	        -3748.59	         3005.04	        -743.545
     984	 1.99925	 1.73801	        -3752.94	         3009.46	        -743.488
     985	  2.0037	 1.72203	        -3759.69	         3016.14	        -743.549
     986	 2.00882	 1.70435	        -3767.51	         3023.82	        -743.694
     987	 2.01303	 1.69072	        -3773.96	         3030.14	        -743.824
     988	 2.01493	  1.6863	        -3776.86	         3032.98	        -743.881
     989	 2.01368	 1.69379	        -3775.01	          3031.1	        -743.905
     990	 2.00891	  1.7143	        -3767.86	         3023.95	        -743.909
     991	 2.00062	 1.74759	        -3755.36	         3011.52	        -743.845
     992	 1.98953	 1.79069	         -3738.6	         2994.88	        -743.713
     993	  1.9771	 1.83796	         -3719.8	         2976.23	        -743.564
     994	 1.96511	 1.88261	        -3701.68	         2958.25	        -743.429
     995	 1.95529	 1.91816	        -3686.85	         2943.53	        -743.322
     996	 1.94913	 1.93921	        -3677.53	         2934.28	        -743.251
     997	  1.9476	 1.94211	        -3675.23	         2931.99	        -743.247
     998	 1.95095	 1.92608	        -3680.34	         2937.01	        -743.328
     999	 1.95856	 1.89368	        -3691.85	         2948.42	        -743.432
