    Step 	 temperature 	 pressure 	 Potential Energy 	 Kinetic Energy 	 Sum Energy

       0	 2.17912	-1.55884	        -16820.5	         16064.9	        -755.584
       1	 2.17919	-1.55544	          -16821	         16065.4	        -755.622
       2	 2.17934	-1.54502	        -16822.3	         16066.5	         -755.74
       3	 2.17938	-1.52699	        -16822.8	         16066.8	         -755.95
       4	 2.17895	-1.50028	        -16819.9	         16063.7	        -756.276
       5	 2.17752	-1.46326	        -16809.8	         16053.1	        -756.752
       6	  2.1743	-1.41364	        -16786.8	         16029.4	         -757.42
       7	  2.1682	-1.34833	        -16742.8	         15984.4	        -758.324
       8	 2.15779	-1.26336	        -16667.2	         15907.7	        -759.469
       9	 2.14134	-1.15407	        -16547.2	         15786.5	        -760.735
      10	 2.11713	 -1.0161	        -16369.9	         15608.1	        -761.781
      11	 2.08417	-0.84735	        -16127.4	         15365.2	        -762.173
      12	 2.04289	-0.65018	        -15822.6	           15061	        -761.677
      13	 1.99553	-0.432446	        -15472.3	           14712	        -760.293
      14	 1.94595	-0.206852	        -15105.1	         14346.6	        -758.489
      15	  1.8986	0.0120754	        -14754.6	         13997.6	        -756.952
      16	 1.85722	0.212005	        -14448.7	         13692.7	        -756.031
      17	 1.82411	0.385066	        -14204.4	         13448.6	        -755.757
      18	     1.8	0.528125	          -14027	           13271	        -755.971
      19	 1.78445	0.641817	        -13912.8	         13156.4	        -756.439
      20	 1.77631	0.729063	        -13853.4	         13096.4	        -756.979
      21	 1.77419	 0.79376	        -13838.3	         13080.8	        -757.478
      22	 1.77676	0.839865	        -13857.6	         13099.7	        -757.844
      23	 1.78297	0.870683	        -13903.5	         13145.5	        -757.993
      24	  1.7922	0.888366	        -13971.5	         13213.5	            -758
      25	 1.80408	0.894378	        -14059.2	           13301	        -758.178
      26	 1.81797	0.891015	        -14162.1	         13403.4	        -758.623
      27	 1.83286	0.881831	        -14272.2	         13513.1	        -759.074
      28	 1.84767	0.870391	        -14381.7	         13622.3	        -759.431
      29	 1.86153	0.859601	        -14484.2	         13724.5	        -759.763
      30	 1.87377	 0.85184	        -14574.6	         13814.6	        -759.991
      31	 1.88399	0.848529	          -14650	           13890	        -759.984
      32	 1.89232	0.849539	        -14711.2	         13951.4	        -759.814
      33	 1.89922	0.853601	        -14761.9	         14002.2	        -759.664
      34	 1.90521	0.859275	        -14805.9	         14046.3	        -759.572
      35	 1.91075	0.865269	        -14846.6	         14087.1	         -759.45
      36	 1.91631	0.870177	        -14887.5	         14128.2	        -759.307
      37	 1.92237	0.872661	        -14932.1	         14172.8	        -759.298
      38	 1.92907	0.872258	        -14981.6	         14222.1	        -759.478
      39	 1.93621	0.869653	        -15034.5	         14274.8	        -759.722
      40	 1.94344	0.866018	          -15088	         14328.1	        -759.913
      41	 1.95041	0.862398	        -15139.6	         14379.5	        -760.094
      42	 1.95681	0.859853	        -15186.9	         14426.6	         -760.33
      43	 1.96222	0.859715	          -15227	         14466.5	        -760.541
      44	 1.96628	0.863148	          -15257	         14496.4	        -760.614
      45	 1.96891	0.870524	        -15276.3	         14515.7	        -760.549
      46	  1.9703	0.881327	        -15286.4	           14526	         -760.39
      47	 1.97087	 0.89439	        -15290.4	         14530.2	         -760.18
      48	 1.97114	0.908216	        -15292.3	         14532.2	        -760.033
      49	  1.9715	0.921632	        -15294.9	         14534.9	        -760.026
      50	  1.9721	0.934214	        -15299.4	         14539.3	        -760.106
      51	 1.97288	0.946079	        -15305.2	         14545.1	        -760.191
      52	 1.97379	0.957422	          -15312	         14551.8	        -760.191
      53	 1.97488	0.968099	          -15320	         14559.8	        -760.176
      54	 1.97615	0.978034	        -15329.5	         14569.1	        -760.395
      55	 1.97722	0.988355	        -15337.8	           14577	        -760.827
      56	 1.97737	 1.00119	        -15339.2	         14578.1	        -761.126
      57	 1.97612	 1.01793	          -15330	         14568.9	        -761.135
      58	 1.97351	 1.03829	        -15310.7	         14549.7	        -760.986
      59	 1.96998	 1.06091	        -15284.5	         14523.7	        -760.792
      60	 1.96611	 1.08398	        -15255.7	         14495.1	         -760.53
      61	 1.96262	 1.10525	        -15229.6	         14469.4	        -760.168
      62	 1.96037	 1.12213	        -15212.7	         14452.9	        -759.859
      63	    1.96	 1.13266	          -15210	         14450.1	        -759.912
      64	 1.96139	 1.13717	        -15220.8	         14460.4	         -760.42
      65	 1.96353	 1.13865	        -15237.2	         14476.1	        -761.067
      66	 1.96517	 1.14093	        -15249.6	         14488.2	        -761.368
      67	 1.96566	 1.14597	          -15253	         14491.8	        -761.155
      68	 1.96533	 1.15287	        -15250.1	         14489.4	        -760.704
      69	 1.96502	 1.15922	        -15247.5	         14487.1	        -760.435
      70	 1.96527	 1.16342	        -15249.4	         14488.9	        -760.521
      71	 1.96602	 1.16571	        -15255.3	         14494.5	        -760.796
      72	 1.96683	 1.16743	        -15261.4	         14500.4	        -760.985
      73	 1.96737	 1.16949	        -15265.4	         14504.5	         -760.96
      74	 1.96768	 1.17173	        -15267.6	         14506.7	        -760.834
      75	 1.96801	  1.1734	        -15269.9	         14509.1	        -760.764
      76	 1.96853	  1.1739	        -15273.7	         14512.9	        -760.789
      77	 1.96929	 1.17313	        -15279.4	         14518.6	        -760.827
      78	 1.97032	 1.17104	        -15286.9	         14526.1	        -760.803
      79	  1.9717	 1.16736	        -15297.1	         14536.3	        -760.786
      80	 1.97346	 1.16204	        -15310.2	         14549.3	        -760.895
      81	 1.97537	 1.15576	        -15324.4	         14563.4	        -761.051
      82	 1.97712	 1.14952	        -15337.3	         14576.3	        -761.035
      83	 1.97865	 1.14352	        -15348.4	         14587.5	        -760.822
      84	 1.98025	 1.13696	        -15359.9	         14599.3	        -760.592
      85	 1.98225	  1.1289	        -15374.6	         14614.1	        -760.513
      86	 1.98473	 1.11919	          -15393	         14632.3	        -760.626
      87	 1.98741	 1.10869	          -15413	         14652.1	        -760.846
      88	 1.98984	 1.09879	        -15431.1	           14670	        -761.061
      89	 1.99158	 1.09082	          -15444	         14682.8	        -761.169
      90	  1.9924	  1.0854	          -15450	         14688.9	        -761.091
      91	 1.99249	 1.08205	        -15450.4	         14689.6	        -760.828
      92	 1.99235	 1.07929	          -15449	         14688.5	        -760.511
      93	 1.99256	 1.07534	        -15450.4	         14690.1	        -760.308
      94	 1.99354	 1.06905	        -15457.5	         14697.2	        -760.208
      95	 1.99546	 1.05993	        -15471.6	         14711.4	        -760.148
      96	 1.99837	 1.04787	        -15493.1	         14732.9	         -760.23
      97	 2.00204	  1.0336	        -15520.4	         14759.9	        -760.477
      98	 2.00597	 1.01867	        -15549.6	         14788.9	        -760.721
      99	 2.00969	 1.00463	        -15577.1	         14816.3	        -760.842
     100	 2.01292	0.992379	          -15601	         14840.1	        -760.899
     101	  2.0155	0.982448	        -15620.2	         14859.1	        -761.045
     102	 2.01716	0.975746	        -15632.6	         14871.4	        -761.284
     103	 2.01747	0.973565	        -15635.1	         14873.7	        -761.459
     104	 2.01614	0.976774	        -15625.3	         14863.8	        -761.466
     105	  2.0132	0.985214	        -15603.5	         14842.1	        -761.318
     106	 2.00903	 0.99768	        -15572.5	         14811.4	        -761.031
     107	 2.00438	 1.01198	        -15537.7	         14777.2	        -760.544
     108	 2.00031	 1.02492	        -15507.3	         14747.2	         -760.09
     109	 1.99769	 1.03382	          -15488	         14727.8	        -760.201
     110	 1.99636	 1.03906	        -15478.8	         14718.1	        -760.738
     111	  1.9954	 1.04343	        -15472.2	           14711	        -761.204
     112	 1.99395	 1.04938	        -15461.6	         14700.3	        -761.321
     113	 1.99182	 1.05745	        -15445.7	         14684.6	        -761.147
     114	 1.98939	 1.06642	        -15427.6	         14666.7	         -760.91
     115	 1.98726	 1.07461	        -15411.7	           14651	        -760.664
     116	 1.98597	 1.08037	          -15402	         14641.5	        -760.476
     117	 1.98584	 1.08271	        -15401.1	         14640.5	        -760.562
     118	 1.98665	 1.08223	        -15407.4	         14646.5	        -760.838
     119	 1.98783	  1.0807	        -15416.2	         14655.2	        -761.008
     120	  1.9889	 1.07949	          -15424	         14663.1	        -760.987
     121	 1.98974	 1.07898	        -15430.2	         14669.3	        -760.879
     122	 1.99043	 1.07899	        -15435.2	         14674.3	        -760.855
     123	 1.99089	 1.07972	        -15438.8	         14677.8	        -761.009
     124	 1.99079	 1.08216	        -15438.3	           14677	        -761.287
     125	 1.98962	 1.08779	        -15429.9	         14668.4	        -761.481
     126	 1.98712	 1.09732	        -15411.3	         14649.9	        -761.322
     127	 1.98372	 1.10943	        -15385.7	         14624.9	        -760.804
     128	 1.98049	 1.12083	        -15361.4	         14601.1	        -760.276
     129	 1.97854	 1.12821	        -15346.8	         14586.7	        -760.044
     130	 1.97836	 1.13003	        -15345.6	         14585.4	        -760.196
     131	 1.97969	 1.12704	        -15355.8	         14595.2	        -760.605
     132	 1.98175	 1.12151	        -15371.3	         14610.4	        -760.961
     133	 1.98385	 1.11559	        -15386.9	         14625.8	        -761.041
     134	 1.98574	 1.11001	        -15400.7	         14639.8	        -760.904
     135	  1.9876	 1.10439	        -15414.3	         14653.5	        -760.818
     136	 1.98948	 1.09855	        -15428.3	         14667.4	        -760.974
     137	 1.99108	  1.0935	        -15440.4	         14679.1	        -761.275
     138	 1.99184	  1.0909	        -15446.2	         14684.8	        -761.453
     139	 1.99146	 1.09172	        -15443.3	           14682	         -761.36
     140	 1.99012	 1.09533	        -15433.1	         14672.1	        -761.059
     141	 1.98842	 1.09995	        -15420.3	         14659.5	        -760.751
     142	 1.98696	 1.10369	        -15409.4	         14648.8	        -760.615
     143	 1.98607	 1.10557	        -15402.8	         14642.2	        -760.571
     144	 1.98588	 1.10521	        -15401.3	         14640.9	        -760.439
     145	  1.9866	 1.10201	        -15406.4	         14646.1	        -760.328
     146	 1.98828	 1.09574	          -15419	         14658.5	        -760.496
     147	 1.99052	 1.08768	        -15435.9	           14675	        -760.886
     148	 1.99251	 1.08031	        -15450.8	         14689.7	        -761.178
     149	 1.99358	 1.07564	        -15458.8	         14697.6	         -761.23
     150	 1.99354	 1.07429	        -15458.3	         14697.3	        -761.096
     151	 1.99258	 1.07566	          -15451	         14690.2	        -760.812
     152	 1.99125	 1.07813	        -15440.9	         14680.4	        -760.457
     153	 1.99024	 1.07968	        -15433.2	           14673	        -760.232
     154	 1.98997	 1.07901	        -15431.2	           14671	        -760.261
     155	 1.99042	 1.07619	        -15434.7	         14674.3	        -760.459
     156	 1.99121	  1.0723	        -15440.8	         14680.1	        -760.708
     157	 1.99183	 1.06882	        -15445.6	         14684.7	         -760.96
     158	 1.99179	 1.06719	        -15445.5	         14684.4	        -761.145
     159	 1.99077	 1.06833	        -15437.9	         14676.8	        -761.095
     160	 1.98893	  1.0718	        -15424.1	         14663.3	        -760.735
     161	   1.987	 1.07541	        -15409.4	         14649.1	        -760.284
     162	 1.98587	 1.07652	        -15400.8	         14640.7	        -760.063
     163	 1.98601	 1.07371	        -15401.8	         14641.8	        -760.084
     164	 1.98744	 1.06698	        -15412.5	         14652.4	        -760.182
     165	 1.98994	 1.05704	        -15431.1	         14670.7	        -760.372
     166	 1.99305	 1.04525	        -15454.3	         14693.6	        -760.653
     167	 1.99619	 1.03345	        -15477.7	         14716.8	        -760.859
     168	 1.99893	 1.02304	        -15497.9	           14737	        -760.894
     169	 2.00111	 1.01461	          -15514	         14753.1	        -760.936
     170	 2.00252	 1.00874	        -15524.7	         14763.5	        -761.219
     171	 2.00264	 1.00704	        -15525.8	         14764.4	        -761.449
     172	 2.00111	 1.01067	        -15514.3	         14753.1	        -761.221
     173	 1.99834	 1.01831	        -15493.3	         14732.7	        -760.666
     174	 1.99537	 1.02682	          -15471	         14710.8	        -760.189
     175	 1.99315	 1.03333	        -15454.4	         14694.4	        -760.008
     176	 1.99209	  1.0366	        -15446.7	         14686.6	        -760.089
     177	 1.99211	 1.03689	          -15447	         14686.7	        -760.305
     178	 1.99281	 1.03535	        -15452.4	         14691.9	        -760.508
     179	  1.9938	 1.03312	        -15459.9	         14699.2	        -760.656
     180	 1.99478	 1.03115	        -15467.2	         14706.4	        -760.791
     181	 1.99553	 1.03014	        -15472.7	         14711.9	        -760.817
     182	 1.99602	 1.03023	        -15476.3	         14715.5	         -760.71
     183	 1.99643	  1.0309	        -15479.3	         14718.6	        -760.724
     184	  1.9967	 1.03228	        -15481.6	         14720.6	        -760.987
     185	  1.9964	 1.03572	        -15479.6	         14718.3	        -761.267
     186	 1.99505	 1.04257	        -15469.7	         14708.4	        -761.314
     187	  1.9926	 1.05297	        -15451.5	         14690.3	        -761.183
     188	 1.98932	 1.06599	        -15427.3	         14666.2	        -761.072
     189	 1.98552	  1.0807	        -15399.3	         14638.2	        -761.101
     190	 1.98125	 1.09682	          -15368	         14606.7	        -761.269
     191	 1.97636	 1.11468	        -15332.1	         14570.7	        -761.414
     192	 1.97079	 1.13434	        -15290.9	         14529.6	         -761.28
     193	 1.96503	 1.15424	          -15248	         14487.2	        -760.785
     194	 1.96021	   1.171	        -15211.8	         14451.6	        -760.131
     195	 1.95763	 1.18063	        -15192.4	         14432.7	         -759.74
     196	 1.95803	 1.18093	        -15195.5	         14435.6	        -759.909
     197	   1.961	 1.17307	          -15218	         14457.5	        -760.495
     198	  1.9653	 1.16078	        -15250.2	         14489.2	        -761.055
     199	 1.96967	 1.14782	        -15282.6	         14521.4	        -761.229
     200	 1.97354	  1.1359	        -15310.9	         14549.9	        -761.011
     201	 1.97709	 1.12452	        -15336.7	         14576.1	        -760.659
     202	 1.98084	  1.1123	        -15364.1	         14603.7	        -760.454
     203	 1.98507	  1.0985	        -15395.4	         14634.8	        -760.519
     204	 1.98959	 1.08384	          -15429	         14668.2	        -760.772
     205	 1.99389	 1.07003	        -15460.9	         14699.8	        -761.031
     206	 1.99739	 1.05887	        -15486.8	         14725.6	        -761.199
     207	  1.9997	 1.05159	          -15504	         14742.7	        -761.309
     208	 2.00056	 1.04899	        -15510.4	           14749	        -761.399
     209	 1.99983	 1.05153	          -15505	         14743.6	        -761.431
     210	 1.99752	  1.0591	        -15487.9	         14726.6	        -761.282
     211	 1.99408	 1.07037	        -15462.1	         14701.2	        -760.863
     212	 1.99039	  1.0826	        -15434.5	         14674.1	        -760.434
     213	  1.9873	 1.09307	        -15411.8	         14651.3	        -760.429
     214	 1.98495	 1.10127	        -15394.7	           14634	        -760.703
     215	 1.98297	 1.10819	        -15380.2	         14619.4	        -760.794
     216	 1.98124	   1.114	        -15367.2	         14606.7	        -760.565
     217	  1.9802	 1.11724	        -15359.2	           14599	        -760.226
     218	 1.98047	 1.11597	        -15361.1	           14601	        -760.082
     219	 1.98229	 1.10939	        -15374.7	         14614.4	        -760.261
     220	 1.98532	 1.09855	        -15397.3	         14636.7	        -760.544
     221	 1.98901	 1.08521	        -15424.5	         14663.9	        -760.635
     222	 1.99306	 1.07034	        -15454.3	         14693.7	        -760.576
     223	 1.99735	 1.05433	        -15486.1	         14725.4	        -760.678
     224	 2.00155	 1.03837	        -15517.2	         14756.3	        -760.942
     225	 2.00503	 1.02442	        -15543.1	           14782	        -761.084
     226	 2.00742	 1.01376	        -15560.6	         14799.6	        -760.983
     227	  2.0088	 1.00625	        -15570.4	         14809.7	        -760.686
     228	 2.00965	 1.00051	        -15576.4	           14816	        -760.363
     229	 2.01054	0.994951	        -15582.8	         14822.6	        -760.244
     230	  2.0117	0.988982	        -15591.5	         14831.1	        -760.343
     231	 2.01297	0.983134	          -15601	         14840.5	        -760.463
     232	 2.01412	 0.97818	        -15609.5	         14848.9	        -760.585
     233	 2.01483	0.974988	          -15615	         14854.1	        -760.845
     234	 2.01461	0.974998	        -15613.6	         14852.5	        -761.103
     235	 2.01307	0.979422	        -15602.2	         14841.2	        -761.024
     236	 2.01044	0.987588	        -15582.4	         14821.8	        -760.574
     237	  2.0076	 0.99682	          -15561	         14800.9	        -760.097
     238	  2.0055	 1.00429	        -15545.4	         14785.4	        -759.971
     239	 2.00446	 1.00906	          -15538	         14777.7	        -760.251
     240	 2.00403	 1.01243	        -15535.2	         14774.6	        -760.656
     241	 2.00352	 1.01645	        -15531.7	         14770.8	        -760.894
     242	 2.00252	 1.02231	        -15524.4	         14763.5	        -760.894
     243	 2.00109	 1.02983	        -15513.7	         14752.9	        -760.744
     244	 1.99961	 1.03788	        -15502.6	           14742	        -760.594
     245	 1.99847	 1.04528	        -15494.2	         14733.6	        -760.601
     246	 1.99778	 1.05168	        -15489.3	         14728.5	        -760.784
     247	 1.99731	 1.05774	          -15486	           14725	         -760.98
     248	 1.99675	 1.06434	          -15482	         14720.9	        -761.065
     249	 1.99591	 1.07197	        -15475.9	         14714.8	        -761.096
     250	  1.9947	 1.08089	          -15467	         14705.8	        -761.156
     251	 1.99296	 1.09151	        -15454.3	           14693	        -761.248
     252	 1.99049	 1.10434	        -15436.2	         14674.8	        -761.368
     253	 1.98708	 1.11992	        -15411.1	         14649.6	        -761.479
     254	 1.98257	  1.1385	          -15378	         14616.5	        -761.493
     255	 1.97709	 1.15957	        -15337.4	         14576.1	        -761.365
     256	 1.97106	 1.18164	        -15292.7	         14531.6	        -761.105
     257	 1.96523	 1.20235	        -15249.4	         14488.7	        -760.725
     258	 1.96058	 1.21868	        -15214.7	         14454.4	        -760.286
     259	 1.95813	 1.22754	        -15196.3	         14436.3	        -760.011
     260	 1.95845	 1.22715	        -15198.8	         14438.7	        -760.162
     261	 1.96128	  1.2184	        -15220.2	         14459.5	        -760.619
     262	 1.96568	 1.20422	        -15253.1	           14492	        -761.067
     263	 1.97058	 1.18793	        -15289.6	         14528.1	        -761.469
     264	 1.97495	 1.17268	        -15322.2	         14560.3	        -761.887
     265	 1.97785	 1.16145	        -15343.8	         14581.7	        -762.166
     266	 1.97873	 1.15605	        -15350.2	         14588.1	        -762.038
     267	 1.97786	 1.15582	        -15343.3	         14581.7	        -761.538
     268	 1.97619	 1.15796	        -15330.5	         14569.4	        -761.089
     269	 1.97464	 1.15976	        -15318.9	           14558	        -760.841
     270	 1.97379	 1.15954	        -15312.4	         14551.8	        -760.671
     271	 1.97396	  1.1563	        -15313.7	           14553	        -760.665
     272	 1.97513	 1.15002	        -15322.4	         14561.6	        -760.861
     273	 1.97696	  1.1417	          -15336	         14575.1	        -760.937
     274	 1.97928	 1.13189	        -15352.9	         14592.2	        -760.737
     275	 1.98226	 1.12001	        -15374.8	         14614.1	        -760.654
     276	 1.98585	 1.10619	        -15401.5	         14640.6	         -760.86
     277	 1.98953	 1.09208	        -15428.8	         14667.7	        -761.087
     278	 1.99269	 1.07948	        -15452.1	           14691	        -761.138
     279	 1.99509	 1.06915	        -15469.7	         14708.7	         -760.94
     280	   1.997	  1.0604	        -15483.4	         14722.8	         -760.56
     281	 1.99904	 1.05148	          -15498	         14737.8	         -760.25
     282	 2.00165	 1.04106	        -15517.3	         14757.1	        -760.251
     283	 2.00476	 1.02948	        -15540.5	           14780	        -760.516
     284	 2.00777	 1.01856	        -15562.9	         14802.1	        -760.806
     285	 2.01001	 1.01027	        -15579.7	         14818.7	        -761.033
     286	 2.01098	 1.00611	          -15587	         14825.8	         -761.19
     287	 2.01041	 1.00684	        -15582.8	         14821.6	        -761.218
     288	 2.00839	 1.01222	        -15567.8	         14806.7	        -761.057
     289	  2.0054	 1.02073	        -15545.4	         14784.7	        -760.713
     290	 2.00231	  1.0298	        -15522.3	         14761.9	        -760.374
     291	 1.99988	 1.03702	        -15504.4	           14744	         -760.39
     292	 1.99821	 1.04198	        -15492.5	         14731.7	        -760.775
     293	 1.99677	 1.04627	        -15482.1	         14721.1	        -761.029
     294	 1.99515	 1.05105	        -15470.1	         14709.2	        -760.917
     295	 1.99351	 1.05573	        -15457.8	         14697.1	        -760.739
     296	 1.99216	 1.05933	        -15447.9	         14687.1	        -760.738
     297	  1.9912	 1.06163	        -15440.8	           14680	         -760.78
     298	 1.99062	 1.06264	        -15436.5	         14675.8	        -760.677
     299	 1.99064	 1.06179	        -15436.4	         14675.9	        -760.505
     300	  1.9915	 1.05834	        -15442.8	         14682.3	          -760.5
     301	 1.99317	 1.05247	        -15455.1	         14694.5	        -760.612
     302	 1.99536	  1.0451	        -15471.4	         14710.7	        -760.689
     303	 1.99777	 1.03718	        -15489.3	         14728.4	        -760.829
     304	 2.00001	 1.02988	          -15506	         14744.9	        -761.035
     305	 2.00162	 1.02462	          -15518	         14756.8	        -761.148
     306	 2.00234	 1.02221	        -15523.2	         14762.1	        -761.091
     307	 2.00223	 1.02243	        -15522.2	         14761.3	        -760.885
     308	 2.00165	 1.02416	        -15517.7	         14757.1	        -760.605
     309	 2.00114	 1.02581	        -15513.6	         14753.3	        -760.361
     310	 2.00112	 1.02599	        -15513.4	         14753.1	        -760.271
     311	 2.00177	  1.0242	        -15518.2	         14757.9	        -760.319
     312	 2.00299	  1.0207	        -15527.3	         14766.9	        -760.374
     313	 2.00463	 1.01598	        -15539.4	           14779	        -760.438
     314	 2.00646	 1.01068	        -15553.1	         14792.5	         -760.59
     315	 2.00815	 1.00593	        -15565.7	         14804.9	        -760.739
     316	 2.00933	 1.00283	        -15574.4	         14813.6	        -760.791
     317	 2.00981	 1.00194	          -15578	         14817.2	        -760.829
     318	 2.00948	 1.00364	        -15575.7	         14814.8	        -760.916
     319	 2.00821	 1.00831	        -15566.3	         14805.4	        -760.958
     320	 2.00599	 1.01593	        -15549.9	           14789	        -760.853
     321	 2.00314	 1.02552	        -15528.6	           14768	        -760.636
     322	 2.00019	  1.0354	        -15506.7	         14746.3	        -760.436
     323	 1.99769	 1.04388	        -15488.2	         14727.9	        -760.336
     324	 1.99602	 1.04975	        -15475.9	         14715.6	        -760.313
     325	 1.99538	 1.05239	        -15471.1	         14710.8	         -760.33
     326	  1.9958	 1.05161	        -15474.3	         14713.9	        -760.415
     327	 1.99713	 1.04783	        -15484.2	         14723.7	        -760.543
     328	 1.99911	 1.04186	        -15498.9	         14738.3	        -760.594
     329	 2.00158	 1.03426	        -15517.1	         14756.5	        -760.566
     330	 2.00447	 1.02529	        -15538.4	         14777.8	        -760.619
     331	 2.00757	 1.01565	        -15561.5	         14800.7	         -760.84
     332	 2.01043	 1.00688	        -15582.8	         14821.7	        -761.109
     333	 2.01249	 1.00066	        -15598.2	         14836.9	        -761.264
     334	 2.01345	0.998023	        -15605.2	           14844	        -761.246
     335	 2.01334	0.998914	        -15604.3	         14843.2	        -761.072
     336	 2.01251	 1.00235	        -15597.9	         14837.1	         -760.82
     337	 2.01145	  1.0069	        -15589.9	         14829.3	        -760.645
     338	 2.01048	  1.0116	        -15582.8	         14822.1	        -760.679
     339	 2.00953	 1.01661	          -15576	         14815.1	        -760.863
     340	 2.00829	 1.02289	          -15567	           14806	        -760.965
     341	 2.00655	 1.03103	        -15554.1	         14793.2	        -760.897
     342	 2.00441	  1.0407	        -15538.2	         14777.4	        -760.801
     343	   2.002	 1.05137	        -15520.4	         14759.6	        -760.826
     344	 1.99929	 1.06306	        -15500.7	         14739.7	        -760.999
     345	 1.99601	 1.07642	        -15476.7	         14715.5	        -761.164
     346	 1.99198	 1.09186	        -15446.9	         14685.8	        -761.103
     347	 1.98745	 1.10847	        -15413.2	         14652.4	        -760.745
     348	 1.98326	 1.12365	        -15381.8	         14621.5	         -760.26
     349	 1.98044	 1.13423	        -15360.7	         14600.8	        -759.943
     350	 1.97967	 1.13815	        -15355.1	         14595.1	        -759.985
     351	 1.98089	 1.13555	        -15364.4	           14604	        -760.329
     352	 1.98339	 1.12849	        -15383.3	         14622.5	        -760.781
     353	  1.9862	 1.11986	        -15404.4	         14643.2	        -761.199
     354	 1.98841	 1.11238	        -15420.9	         14659.5	        -761.473
     355	 1.98941	 1.10785	        -15428.4	         14666.9	        -761.541
     356	 1.98906	 1.10672	        -15425.7	         14664.3	        -761.397
     357	 1.98769	 1.10808	        -15415.3	         14654.2	        -761.051
     358	 1.98603	 1.10981	        -15402.6	         14641.9	        -760.653
     359	 1.98489	 1.10948	        -15393.9	         14633.6	        -760.367
     360	 1.98495	 1.10525	        -15394.1	           14634	        -760.146
     361	 1.98669	 1.09577	        -15406.8	         14646.8	         -759.94
     362	 1.99043	 1.08019	        -15434.4	         14674.4	        -759.989
     363	 1.99591	 1.05933	        -15475.3	         14714.8	        -760.493
     364	 2.00205	 1.03656	        -15521.1	           14760	        -761.149
     365	 2.00746	  1.0161	        -15561.4	         14799.9	        -761.547
     366	 2.01122	 1.00078	        -15589.2	         14827.6	        -761.589
     367	 2.01316	 0.99126	        -15603.2	         14841.9	        -761.316
     368	 2.01375	0.986189	        -15607.1	         14846.2	         -760.91
     369	 2.01376	0.983363	        -15606.9	         14846.3	        -760.668
     370	 2.01368	0.981318	        -15606.4	         14845.7	        -760.658
     371	 2.01359	0.979846	        -15605.8	         14845.1	        -760.751
     372	 2.01334	 0.97937	        -15603.9	         14843.2	        -760.772
     373	 2.01285	0.980013	        -15600.3	         14839.6	        -760.677
     374	 2.01227	0.981336	        -15595.9	         14835.3	        -760.597
     375	 2.01174	0.982887	          -15592	         14831.4	        -760.575
     376	 2.01129	0.984513	        -15588.8	         14828.1	        -760.687
     377	 2.01073	0.986717	        -15584.9	           14824	        -760.898
     378	 2.00976	0.990406	        -15577.8	         14816.8	        -760.977
     379	 2.00829	0.995802	        -15566.8	           14806	        -760.842
     380	 2.00661	 1.00198	        -15554.1	         14793.6	        -760.552
     381	 2.00531	 1.00721	        -15544.3	           14784	        -760.272
     382	 2.00493	 1.00991	        -15541.4	         14781.2	        -760.205
     383	 2.00559	 1.00971	        -15546.5	         14786.1	        -760.384
     384	 2.00694	 1.00772	        -15556.8	         14796.1	        -760.723
     385	 2.00826	 1.00606	        -15566.8	         14805.8	        -761.061
     386	 2.00881	 1.00692	        -15571.1	         14809.8	        -761.223
     387	 2.00819	 1.01152	        -15566.5	         14805.3	         -761.21
     388	 2.00639	 1.01986	          -15553	           14792	        -761.066
     389	  2.0037	 1.03103	          -15533	         14772.2	        -760.874
     390	 2.00057	 1.04366	        -15509.8	         14749.1	        -760.785
     391	  1.9973	 1.05674	        -15485.8	           14725	        -760.761
     392	 1.99417	 1.06946	        -15462.5	         14701.9	        -760.605
     393	 1.99158	 1.08049	        -15443.2	         14682.9	        -760.375
     394	 1.99003	 1.08829	        -15431.8	         14671.4	        -760.361
     395	  1.9896	 1.09258	        -15428.8	         14668.2	        -760.595
     396	 1.98988	 1.09452	        -15431.2	         14670.3	        -760.874
     397	 1.99036	 1.09562	        -15434.9	         14673.9	        -761.029
     398	 1.99075	 1.09677	        -15437.8	         14676.7	         -761.08
     399	 1.99091	 1.09833	          -15439	         14677.9	        -761.115
     400	 1.99084	 1.10045	        -15438.3	         14677.3	        -760.974
     401	 1.99075	 1.10251	        -15437.5	         14676.7	        -760.755
     402	 1.99094	 1.10361	          -15439	         14678.1	        -760.818
     403	 1.99122	 1.10431	        -15441.3	         14680.2	        -761.147
     404	 1.99096	 1.10647	        -15439.7	         14678.3	        -761.415
     405	 1.98967	 1.11158	        -15430.1	         14668.7	        -761.382
     406	 1.98741	 1.11936	        -15413.1	         14652.1	        -761.054
     407	 1.98484	 1.12789	        -15393.8	         14633.2	        -760.648
     408	 1.98278	 1.13472	        -15378.3	           14618	        -760.375
     409	 1.98178	 1.13823	        -15370.9	         14610.6	        -760.324
     410	 1.98194	 1.13811	        -15372.3	         14611.8	        -760.496
     411	 1.98291	 1.13538	        -15379.7	         14618.9	        -760.785
     412	 1.98413	 1.13172	        -15388.9	         14627.9	         -761.02
     413	 1.98512	  1.1285	        -15396.4	         14635.3	         -761.12
     414	  1.9857	 1.12631	        -15400.6	         14639.5	        -761.119
     415	 1.98589	   1.125	          -15402	         14640.9	        -761.046
     416	 1.98596	 1.12387	        -15402.2	         14641.4	        -760.847
     417	 1.98638	 1.12149	        -15405.1	         14644.5	        -760.576
     418	 1.98772	 1.11622	        -15414.9	         14654.4	        -760.502
     419	 1.99014	  1.1076	        -15432.9	         14672.2	        -760.682
     420	 1.99331	 1.09667	        -15456.5	         14695.6	        -760.929
     421	 1.99667	 1.08512	        -15481.5	         14720.4	        -761.143
     422	 1.99968	 1.07463	        -15503.8	         14742.5	        -761.345
     423	 2.00177	  1.0668	        -15519.5	         14757.9	         -761.53
     424	  2.0025	 1.06303	          -15525	         14763.3	        -761.624
     425	 2.00166	 1.06393	        -15518.6	         14757.1	        -761.489
     426	 1.99955	 1.06861	        -15502.6	         14741.6	        -761.052
     427	 1.99703	 1.07446	        -15483.5	           14723	        -760.509
     428	 1.99515	 1.07837	        -15469.3	         14709.1	        -760.204
     429	 1.99451	 1.07855	        -15464.6	         14704.4	        -760.198
     430	 1.99514	 1.07498	        -15469.4	         14709.1	        -760.305
     431	 1.99675	 1.06859	        -15481.4	         14720.9	        -760.497
     432	 1.99881	  1.0609	        -15496.9	         14736.1	        -760.818
     433	  2.0006	 1.05409	        -15510.5	         14749.3	        -761.174
     434	 2.00138	 1.05039	        -15516.4	           14755	        -761.385
     435	 2.00074	 1.05097	        -15511.6	         14750.4	        -761.245
     436	   1.999	 1.05499	        -15498.3	         14737.5	        -760.793
     437	 1.99699	 1.05988	        -15483.1	         14722.7	         -760.43
     438	 1.99546	 1.06337	        -15471.7	         14711.4	        -760.311
     439	 1.99478	  1.0644	        -15466.6	         14706.4	        -760.189
     440	 1.99525	 1.06208	        -15469.9	         14709.9	        -760.011
     441	 1.99717	 1.05551	          -15484	           14724	        -760.028
     442	 2.00041	 1.04503	        -15508.3	         14747.9	        -760.359
     443	  2.0043	 1.03275	        -15537.4	         14776.6	        -760.816
     444	 2.00788	 1.02153	        -15564.2	           14803	        -761.173
     445	  2.0104	 1.01367	        -15582.8	         14821.5	        -761.298
     446	 2.01157	 1.00999	        -15591.3	         14830.1	        -761.182
     447	 2.01163	 1.00984	        -15591.6	         14830.6	        -760.944
     448	 2.01109	 1.01173	        -15587.4	         14826.6	        -760.734
     449	 2.01042	 1.01427	        -15582.4	         14821.7	        -760.646
     450	 2.00986	 1.01675	        -15578.3	         14817.6	        -760.722
     451	 2.00936	 1.01933	        -15574.7	         14813.8	        -760.863
     452	 2.00872	 1.02255	        -15570.1	         14809.1	        -760.932
     453	 2.00788	 1.02664	        -15563.9	           14803	        -760.883
     454	 2.00698	 1.03121	        -15557.1	         14796.3	        -760.748
     455	 2.00628	 1.03552	        -15551.8	         14791.1	         -760.66
     456	 2.00591	 1.03915	        -15549.2	         14788.4	        -760.748
     457	 2.00568	 1.04264	        -15547.8	         14786.8	        -760.968
     458	 2.00518	 1.04724	        -15544.3	         14783.1	        -761.182
     459	 2.00398	 1.05411	        -15535.5	         14774.2	        -761.269
     460	 2.00193	 1.06362	        -15520.3	         14759.1	        -761.158
     461	 1.99929	 1.07494	        -15500.5	         14739.6	        -760.909
     462	 1.99655	 1.08643	        -15480.2	         14719.4	        -760.733
     463	 1.99412	 1.09678	        -15462.2	         14701.6	        -760.684
     464	 1.99223	 1.10526	        -15448.2	         14687.6	        -760.602
     465	 1.99108	 1.11115	        -15439.7	         14679.2	        -760.517
     466	 1.99085	 1.11388	          -15438	         14677.5	        -760.573
     467	 1.99146	 1.11364	        -15442.7	           14682	        -760.708
     468	  1.9927	 1.11116	        -15451.9	         14691.1	        -760.757
     469	 1.99446	 1.10687	        -15464.8	         14704.1	        -760.718
     470	 1.99671	 1.10089	        -15481.4	         14720.6	        -760.747
     471	 1.99929	 1.09381	        -15500.6	         14739.7	        -760.883
     472	 2.00184	 1.08687	        -15519.5	         14758.4	        -761.067
     473	 2.00386	 1.08156	        -15534.6	         14773.4	        -761.252
     474	 2.00492	 1.07929	        -15542.5	         14781.2	        -761.359
     475	 2.00474	 1.08088	        -15541.3	         14779.9	        -761.394
     476	 2.00323	 1.08659	        -15530.2	         14768.7	        -761.449
     477	 2.00035	 1.09647	          -15509	         14747.5	        -761.502
     478	 1.99614	 1.11029	        -15477.9	         14716.5	        -761.436
     479	 1.99094	 1.12698	        -15439.3	         14678.1	        -761.177
     480	 1.98544	 1.14431	        -15398.4	         14637.6	        -760.834
     481	 1.98048	 1.15963	        -15361.6	           14601	        -760.595
     482	 1.97672	 1.17085	        -15333.8	         14573.3	        -760.493
     483	 1.97454	 1.17678	        -15317.7	         14557.3	        -760.407
     484	 1.97422	 1.17655	        -15315.2	         14554.9	        -760.259
     485	 1.97604	 1.16936	        -15328.5	         14568.3	         -760.19
     486	 1.98001	 1.15519	        -15357.9	         14597.6	        -760.379
     487	 1.98564	  1.1356	        -15399.9	         14639.1	        -760.811
     488	 1.99196	 1.11365	          -15447	         14685.6	        -761.345
     489	 1.99781	 1.09291	        -15490.5	         14728.8	        -761.703
     490	 2.00243	 1.07581	        -15524.5	         14762.8	        -761.662
     491	 2.00579	 1.06261	          -15549	         14787.5	        -761.425
     492	 2.00821	 1.05239	        -15566.7	         14805.4	        -761.325
     493	  2.0099	  1.0447	        -15579.1	         14817.8	        -761.284
     494	 2.01096	 1.03935	        -15586.8	         14825.6	        -761.161
     495	 2.01154	 1.03589	        -15591.1	           14830	        -761.153
     496	 2.01163	 1.03441	        -15591.9	         14830.6	        -761.318
     497	 2.01092	 1.03578	        -15586.8	         14825.4	        -761.442
     498	 2.00918	 1.04072	          -15574	         14812.5	        -761.445
     499	 2.00637	 1.04921	        -15553.2	         14791.9	        -761.325
     500	 2.00276	 1.06042	        -15526.2	         14765.2	        -761.027
     501	 1.99895	 1.07247	        -15497.7	         14737.1	        -760.587
     502	 1.99576	 1.08278	          -15474	         14713.7	        -760.307
     503	 1.99372	 1.08968	        -15458.9	         14698.6	        -760.322
     504	 1.99282	 1.09311	        -15452.4	         14691.9	        -760.459
     505	 1.99276	 1.09385	        -15452.1	         14691.5	        -760.621
     506	 1.99315	 1.09291	        -15455.2	         14694.4	         -760.84
     507	 1.99354	 1.09157	        -15458.3	         14697.3	        -761.062
     508	 1.99355	 1.09092	        -15458.5	         14697.3	        -761.118
     509	 1.99314	 1.09107	        -15455.3	         14694.4	        -760.911
     510	 1.99281	 1.09062	        -15452.4	         14691.9	        -760.518
     511	 1.99334	 1.08722	          -15456	         14695.8	        -760.162
     512	 1.99541	   1.079	        -15471.2	         14711.1	        -760.114
     513	 1.99907	 1.06594	        -15498.3	         14738.1	        -760.258
     514	 2.00389	 1.04949	        -15534.1	         14773.6	        -760.478
     515	 2.00915	 1.03186	        -15573.2	         14812.3	        -760.838
     516	  2.0139	 1.01603	        -15608.5	         14847.3	        -761.186
     517	 2.01724	 1.00479	        -15633.3	           14872	        -761.375
     518	 2.01863	0.999857	        -15643.6	         14882.2	         -761.39
     519	 2.01794	 1.00162	        -15638.4	         14877.1	        -761.245
     520	  2.0155	 1.00918	        -15620.1	         14859.1	        -760.947
     521	 2.01199	 1.02051	        -15593.8	         14833.2	        -760.588
     522	 2.00823	 1.03307	        -15565.9	         14805.6	        -760.331
     523	 2.00491	 1.04481	        -15541.3	           14781	        -760.256
     524	 2.00229	 1.05475	        -15522.2	         14761.8	        -760.409
     525	  2.0002	 1.06331	        -15507.1	         14746.3	        -760.755
     526	 1.99806	   1.072	        -15491.7	         14730.6	        -761.061
     527	 1.99539	 1.08218	          -15472	         14710.9	        -761.108
     528	 1.99217	 1.09377	        -15448.1	         14687.2	        -760.863
     529	 1.98896	 1.10503	        -15423.9	         14663.5	         -760.42
     530	 1.98668	 1.11317	        -15406.7	         14646.7	        -759.975
     531	 1.98621	 1.11553	        -15403.1	         14643.3	        -759.797
     532	 1.98788	 1.11116	        -15415.6	         14655.6	        -760.001
     533	 1.99125	 1.10139	        -15440.8	         14680.4	         -760.45
     534	 1.99535	 1.08913	        -15471.5	         14710.6	        -760.918
     535	 1.99916	 1.07744	        -15499.9	         14738.7	        -761.207
     536	 2.00206	 1.06834	        -15521.3	           14760	        -761.246
     537	 2.00386	 1.06237	        -15534.5	         14773.4	         -761.15
     538	 2.00475	 1.05913	        -15540.9	         14779.9	        -761.061
     539	 2.00493	 1.05803	        -15542.2	         14781.2	        -760.982
     540	 2.00463	 1.05849	          -15540	           14779	        -760.986
     541	  2.0039	 1.06031	        -15534.8	         14773.6	        -761.124
     542	 2.00267	 1.06382	        -15525.7	         14764.6	        -761.135
     543	 2.00102	 1.06879	        -15513.5	         14752.4	        -761.099
     544	 1.99896	 1.07499	        -15498.6	         14737.2	        -761.396
     545	 1.99607	  1.0837	        -15477.6	           14716	        -761.603
     546	 1.99208	 1.09569	        -15447.9	         14686.5	        -761.325
     547	 1.98755	 1.10916	        -15413.9	         14653.2	         -760.73
     548	 1.98369	 1.12047	        -15384.9	         14624.7	        -760.148
     549	 1.98167	 1.12614	        -15369.7	         14609.8	        -759.895
     550	 1.98197	 1.12468	        -15372.1	           14612	        -760.136
     551	  1.9841	 1.11754	        -15388.4	         14627.7	        -760.669
     552	 1.98695	 1.10804	          -15410	         14648.7	        -761.216
     553	 1.98934	  1.0997	        -15427.8	         14666.3	        -761.546
     554	 1.99049	  1.0948	        -15436.3	         14674.8	        -761.547
     555	 1.99032	 1.09364	        -15434.8	         14673.6	        -761.248
     556	 1.98937	 1.09466	        -15427.4	         14666.5	        -760.837
     557	 1.98839	 1.09556	          -15420	         14659.3	        -760.606
     558	 1.98789	 1.09489	        -15416.2	         14655.6	         -760.59
     559	 1.98799	 1.09226	          -15417	         14656.4	        -760.575
     560	 1.98877	 1.08745	        -15422.6	         14662.1	        -760.464
     561	 1.99042	 1.07988	        -15434.6	         14674.3	        -760.358
     562	 1.99307	  1.0692	        -15454.3	         14693.8	        -760.448
     563	 1.99648	 1.05614	        -15479.7	         14718.9	        -760.758
     564	 2.00003	 1.04266	        -15506.1	         14745.1	        -761.022
     565	 2.00319	 1.03043	        -15529.4	         14768.4	        -761.001
     566	 2.00594	 1.01966	        -15549.4	         14788.6	         -760.74
     567	 2.00862	 1.00936	        -15569.1	         14808.4	        -760.692
     568	  2.0112	0.999732	        -15588.5	         14827.4	        -761.055
     569	 2.01296	0.992985	        -15601.8	         14840.4	        -761.382
     570	  2.0132	0.991212	        -15603.6	         14842.2	        -761.423
     571	 2.01175	0.994861	        -15592.7	         14831.5	        -761.248
     572	 2.00892	 1.00295	        -15571.7	         14810.6	        -761.017
     573	 2.00522	 1.01388	        -15544.2	         14783.4	        -760.816
     574	 2.00119	   1.026	        -15514.3	         14753.7	        -760.579
     575	 1.99745	  1.0374	        -15486.4	         14726.1	        -760.279
     576	 1.99468	 1.04593	        -15465.7	         14705.7	        -760.049
     577	  1.9934	    1.05	        -15456.2	         14696.2	            -760
     578	 1.99375	 1.04919	          -15459	         14698.8	         -760.13
     579	 1.99548	 1.04426	        -15471.9	         14711.6	        -760.383
     580	 1.99802	 1.03691	          -15491	         14730.3	        -760.722
     581	 2.00065	 1.02937	        -15510.7	         14749.7	        -761.052
     582	 2.00264	 1.02383	        -15525.5	         14764.3	        -761.225
     583	 2.00357	  1.0216	        -15532.4	         14771.2	        -761.203
     584	 2.00342	 1.02277	        -15531.1	         14770.1	        -761.047
     585	 2.00246	 1.02654	        -15523.9	           14763	        -760.865
     586	 2.00104	 1.03181	        -15513.3	         14752.6	         -760.75
     587	 1.99946	 1.03769	        -15501.6	         14740.9	        -760.698
     588	  1.9979	 1.04357	        -15490.1	         14729.4	        -760.679
     589	 1.99648	 1.04903	        -15479.6	         14718.9	        -760.677
     590	 1.99528	 1.05374	        -15470.8	         14710.1	        -760.674
     591	 1.99439	  1.0574	        -15464.2	         14703.6	         -760.65
     592	 1.99392	 1.05965	        -15460.7	         14700.1	        -760.628
     593	 1.99394	 1.06023	        -15460.9	         14700.2	        -760.625
     594	 1.99449	 1.05902	        -15464.9	         14704.3	        -760.607
     595	  1.9956	 1.05594	          -15473	         14712.5	        -760.586
     596	 1.99727	 1.05096	        -15485.4	         14724.8	        -760.626
     597	 1.99939	 1.04444	        -15501.1	         14740.4	        -760.694
     598	 2.00182	 1.03688	          -15519	         14758.3	        -760.697
     599	 2.00448	  1.0286	        -15538.6	         14777.9	        -760.691
     600	 2.00726	 1.01995	        -15559.2	         14798.4	         -760.75
     601	 2.00999	 1.01163	        -15579.3	         14818.5	        -760.807
     602	 2.01244	 1.00444	        -15597.4	         14836.5	        -760.876
     603	 2.01432	0.999287	        -15611.5	         14850.5	        -761.011
     604	  2.0153	0.997351	        -15618.8	         14857.6	        -761.156
     605	 2.01499	0.999756	        -15616.6	         14855.4	        -761.262
     606	 2.01316	 1.00723	        -15603.2	         14841.9	        -761.313
     607	 2.00973	 1.01993	        -15577.9	         14816.6	         -761.26
     608	 2.00491	 1.03715	        -15542.2	         14781.1	        -761.076
     609	 1.99921	 1.05725	        -15499.9	         14739.1	        -760.748
     610	 1.99346	 1.07763	          -15457	         14696.7	        -760.293
     611	 1.98872	 1.09502	        -15421.6	         14661.8	        -759.852
     612	 1.98597	 1.10639	        -15401.2	         14641.5	        -759.671
     613	 1.98563	 1.11035	        -15398.9	           14639	        -759.943
     614	 1.98724	 1.10818	        -15411.4	         14650.9	        -760.537
     615	 1.98971	  1.1031	        -15430.1	         14669.1	        -761.067
     616	 1.99199	 1.09817	        -15447.2	         14685.9	        -761.288
     617	 1.99357	  1.0949	        -15458.8	         14697.5	        -761.326
     618	 1.99426	 1.09373	        -15463.9	         14702.6	        -761.384
     619	 1.99396	 1.09498	        -15461.8	         14700.4	        -761.389
     620	 1.99273	  1.0985	        -15452.5	         14691.3	        -761.165
     621	 1.99103	 1.10286	        -15439.6	         14678.8	        -760.788
     622	 1.98961	 1.10584	        -15428.8	         14668.3	        -760.533
     623	 1.98901	 1.10578	        -15424.4	         14663.9	        -760.464
     624	  1.9895	 1.10203	        -15427.9	         14667.5	        -760.388
     625	 1.99123	 1.09414	        -15440.5	         14680.2	        -760.267
     626	 1.99433	 1.08177	        -15463.5	         14703.1	        -760.352
     627	 1.99853	 1.06585	        -15494.8	           14734	        -760.739
     628	 2.00298	   1.049	          -15528	         14766.9	        -761.151
     629	 2.00681	 1.03402	        -15556.4	           14795	         -761.35
     630	 2.00946	 1.02263	          -15576	         14814.6	        -761.361
     631	 2.01083	 1.01527	          -15586	         14824.7	         -761.26
     632	 2.01107	 1.01162	        -15587.6	         14826.5	        -761.148
     633	 2.01037	 1.01114	        -15582.4	         14821.3	        -761.129
     634	 2.00882	  1.0136	        -15570.9	         14809.9	        -761.069
     635	 2.00661	 1.01843	        -15554.4	         14793.6	        -760.788
     636	 2.00431	   1.024	        -15537.1	         14776.6	         -760.42
     637	 2.00258	 1.02822	        -15524.1	         14763.9	        -760.256
     638	 2.00173	 1.03017	          -15518	         14757.6	        -760.404
     639	 2.00152	 1.03055	        -15516.8	         14756.1	        -760.676
     640	 2.00148	 1.03079	        -15516.6	         14755.8	        -760.813
     641	 2.00132	 1.03169	        -15515.5	         14754.6	        -760.825
     642	 2.00098	 1.03338	          -15513	         14752.1	        -760.873
     643	 2.00038	 1.03609	        -15508.7	         14747.7	        -760.987
     644	 1.99933	 1.04036	        -15501.1	         14739.9	        -761.149
     645	 1.99755	 1.04692	        -15488.2	         14726.9	        -761.295
     646	 1.99491	 1.05622	        -15468.5	         14707.4	        -761.138
     647	 1.99181	 1.06707	        -15445.1	         14684.5	        -760.572
     648	 1.98929	 1.07627	        -15426.1	           14666	        -760.057
     649	 1.98829	 1.08101	        -15418.6	         14658.6	        -760.085
     650	 1.98874	 1.08141	        -15422.5	         14661.9	        -760.527
     651	 1.98985	 1.07992	          -15431	         14670.1	        -760.977
     652	 1.99068	 1.07916	        -15437.4	         14676.2	        -761.234
     653	 1.99071	 1.08066	        -15437.6	         14676.4	        -761.204
     654	 1.99003	 1.08419	        -15432.2	         14671.4	        -760.844
     655	 1.98932	 1.08775	        -15426.6	         14666.2	        -760.415
     656	 1.98931	 1.08909	        -15426.5	         14666.1	        -760.328
     657	 1.99018	 1.08782	          -15433	         14672.5	        -760.539
     658	 1.99146	 1.08529	        -15442.8	         14681.9	        -760.844
     659	 1.99252	  1.0834	        -15450.8	         14689.7	        -761.098
     660	 1.99284	 1.08366	        -15453.3	         14692.1	        -761.194
     661	 1.99224	 1.08662	        -15448.9	         14687.7	         -761.16
     662	 1.99082	 1.09198	        -15438.3	         14677.2	        -761.035
     663	 1.98887	  1.0988	        -15423.7	         14662.9	        -760.817
     664	 1.98685	 1.10573	        -15408.6	           14648	        -760.646
     665	 1.98508	 1.11168	        -15395.5	         14634.9	        -760.631
     666	 1.98365	 1.11636	        -15385.1	         14624.4	        -760.693
     667	  1.9825	 1.11992	        -15376.6	         14615.9	        -760.702
     668	 1.98164	 1.12227	        -15370.3	         14609.6	        -760.655
     669	 1.98119	 1.12306	        -15366.9	         14606.3	        -760.603
     670	 1.98127	 1.12186	        -15367.4	         14606.8	         -760.56
     671	   1.982	 1.11835	        -15372.8	         14612.2	        -760.541
     672	 1.98345	 1.11234	        -15383.4	         14622.9	        -760.548
     673	 1.98563	 1.10383	        -15399.6	           14639	        -760.585
     674	 1.98846	 1.09312	        -15420.5	         14659.8	        -760.701
     675	 1.99169	 1.08098	        -15444.6	         14683.7	        -760.936
     676	 1.99488	 1.06886	        -15468.3	         14707.1	        -761.135
     677	 1.99764	 1.05798	        -15488.5	         14727.5	        -761.053
     678	 2.00005	 1.04825	          -15506	         14745.2	        -760.814
     679	 2.00241	  1.0388	        -15523.4	         14762.7	        -760.703
     680	 2.00487	 1.02936	        -15541.5	         14780.8	        -760.775
     681	 2.00721	 1.02063	        -15558.9	           14798	        -760.935
     682	  2.0091	  1.0137	        -15572.9	         14811.9	        -760.989
     683	 2.01041	 1.00904	        -15582.5	         14821.6	        -760.839
     684	 2.01133	 1.00613	        -15589.2	         14828.4	        -760.761
     685	 2.01193	 1.00477	        -15593.8	         14832.8	         -760.95
     686	 2.01185	 1.00602	        -15593.5	         14832.2	        -761.262
     687	 2.01055	 1.01145	        -15584.1	         14822.6	         -761.49
     688	 2.00767	 1.02204	        -15562.9	         14801.4	        -761.465
     689	 2.00337	 1.03721	          -15531	         14769.8	        -761.215
     690	 1.99825	 1.05508	          -15493	           14732	        -760.971
     691	  1.9929	 1.07368	        -15453.5	         14692.6	        -760.891
     692	 1.98771	 1.09178	        -15415.1	         14654.3	        -760.847
     693	 1.98293	 1.10842	        -15379.8	         14619.1	        -760.711
     694	 1.97894	 1.12232	        -15350.3	         14589.7	        -760.595
     695	 1.97606	 1.13237	          -15329	         14568.5	        -760.545
     696	  1.9745	 1.13786	        -15317.4	           14557	        -760.418
     697	 1.97459	 1.13783	        -15317.8	         14557.6	        -760.172
     698	 1.97677	 1.13101	        -15333.8	         14573.7	        -760.064
     699	 1.98111	 1.11721	        -15366.1	         14605.7	         -760.39
     700	 1.98687	 1.09878	        -15409.2	         14648.1	        -761.114
     701	 1.99256	 1.08026	        -15451.8	           14690	         -761.79
     702	 1.99685	 1.06585	        -15483.5	         14721.7	        -761.881
     703	  1.9994	 1.05665	          -15502	         14740.5	        -761.555
     704	 2.00063	  1.0515	        -15510.9	         14749.5	        -761.397
     705	 2.00081	 1.04969	        -15512.2	         14750.9	        -761.308
     706	 2.00014	 1.05078	        -15507.1	         14745.9	        -761.129
     707	 1.99892	 1.05382	        -15497.9	         14736.9	        -760.959
     708	 1.99747	 1.05774	        -15487.1	         14726.3	        -760.805
     709	 1.99617	 1.06148	        -15477.2	         14716.6	        -760.597
     710	 1.99539	  1.0638	        -15471.4	         14710.9	         -760.47
     711	 1.99534	 1.06398	        -15471.2	         14710.6	        -760.621
     712	 1.99579	 1.06275	        -15474.8	         14713.8	        -760.911
     713	 1.99625	 1.06153	        -15478.3	         14717.2	        -761.056
     714	 1.99646	 1.06108	        -15479.9	         14718.8	        -761.034
     715	 1.99648	 1.06131	        -15479.9	         14718.9	        -760.961
     716	  1.9964	 1.06192	        -15479.4	         14718.4	        -760.979
     717	 1.99615	 1.06317	        -15477.6	         14716.5	        -761.115
     718	 1.99543	 1.06596	        -15472.3	         14711.2	        -761.158
     719	 1.99408	 1.07071	        -15462.3	         14701.3	        -760.994
     720	 1.99233	 1.07676	        -15449.1	         14688.3	        -760.741
     721	 1.99055	 1.08284	        -15435.8	         14675.3	        -760.581
     722	 1.98903	 1.08806	        -15424.6	           14664	        -760.549
     723	 1.98784	 1.09213	        -15415.8	         14655.3	        -760.526
     724	 1.98706	 1.09475	        -15409.9	         14649.5	        -760.408
     725	 1.98693	 1.09517	        -15408.8	         14648.6	        -760.195
     726	 1.98784	 1.09223	        -15415.3	         14655.3	        -760.041
     727	 1.99001	 1.08525	        -15431.4	         14671.3	        -760.157
     728	 1.99315	 1.07513	        -15454.9	         14694.4	        -760.547
     729	 1.99646	 1.06428	        -15479.8	         14718.8	         -760.98
     730	 1.99906	 1.05542	        -15499.2	           14738	        -761.236
     731	 2.00039	 1.05023	          -15509	         14747.8	        -761.224
     732	 2.00046	  1.0488	        -15509.2	         14748.3	        -760.965
     733	 1.99975	 1.04976	        -15503.7	           14743	        -760.649
     734	 1.99884	  1.0514	        -15496.9	         14736.3	         -760.56
     735	 1.99796	 1.05312	        -15490.5	         14729.8	        -760.699
     736	 1.99694	 1.05546	        -15483.1	         14722.3	        -760.785
     737	 1.99569	 1.05874	        -15473.8	         14713.1	        -760.691
     738	 1.99438	  1.0624	        -15464.1	         14703.5	        -760.548
     739	 1.99333	 1.06555	        -15456.2	         14695.7	        -760.509
     740	 1.99267	 1.06779	        -15451.4	         14690.8	        -760.565
     741	 1.99239	 1.06918	        -15449.5	         14688.8	        -760.625
     742	 1.99246	 1.06988	        -15450.1	         14689.3	        -760.737
     743	 1.99268	 1.07039	        -15451.9	         14690.9	        -761.005
     744	 1.99259	 1.07205	        -15451.6	         14690.3	        -761.311
     745	 1.99168	  1.0763	          -15445	         14683.6	        -761.432
     746	 1.98981	 1.08354	        -15431.1	         14669.8	        -761.242
     747	 1.98741	 1.09243	          -15413	         14652.1	        -760.882
     748	 1.98517	 1.10076	        -15396.3	         14635.6	        -760.703
     749	 1.98351	 1.10724	        -15384.1	         14623.3	         -760.75
     750	 1.98241	 1.11187	          -15376	         14615.2	        -760.825
     751	 1.98171	 1.11504	          -15371	         14610.1	        -760.892
     752	 1.98122	 1.11725	        -15367.6	         14606.5	        -761.049
     753	  1.9806	 1.11947	        -15363.1	         14601.9	         -761.22
     754	 1.97952	 1.12264	        -15355.1	         14593.9	        -761.192
     755	 1.97805	  1.1266	          -15344	         14583.1	        -760.923
     756	 1.97666	 1.12992	        -15333.5	         14572.9	        -760.621
     757	 1.97593	 1.13097	          -15328	         14567.5	        -760.483
     758	 1.97612	 1.12897	        -15329.4	         14568.9	        -760.514
     759	 1.97717	 1.12418	        -15337.3	         14576.7	        -760.612
     760	 1.97884	  1.1174	        -15349.7	         14588.9	        -760.773
     761	  1.9807	 1.10987	        -15363.7	         14602.7	        -760.999
     762	 1.98226	 1.10309	        -15375.3	         14614.2	        -761.117
     763	 1.98327	  1.0979	        -15382.6	         14621.6	        -761.023
     764	 1.98391	 1.09381	          -15387	         14626.3	         -760.74
     765	 1.98476	 1.08917	          -15393	         14632.6	         -760.46
     766	 1.98633	 1.08244	        -15404.7	         14644.1	        -760.621
     767	 1.98839	 1.07436	        -15420.3	         14659.4	        -760.896
     768	 1.99048	 1.06642	        -15435.6	         14674.7	        -760.864
     769	 1.99251	 1.05876	        -15450.4	         14689.7	        -760.698
     770	 1.99474	 1.05071	        -15466.7	         14706.1	        -760.552
     771	 1.99734	  1.0418	        -15485.9	         14725.3	        -760.613
     772	  2.0001	 1.03273	        -15506.6	         14745.6	        -760.977
     773	 2.00225	 1.02581	        -15522.9	         14761.5	        -761.437
     774	  2.0029	 1.02373	          -15528	         14766.3	        -761.714
     775	 2.00154	 1.02798	        -15517.9	         14756.2	        -761.668
     776	 1.99835	 1.03798	          -15494	         14732.7	        -761.308
     777	 1.99417	 1.05117	        -15462.7	         14701.9	        -760.825
     778	 1.99007	 1.06423	        -15432.2	         14671.7	        -760.482
     779	  1.9869	 1.07457	        -15408.7	         14648.4	        -760.306
     780	 1.98515	 1.08069	        -15395.7	         14635.5	        -760.186
     781	 1.98505	 1.08177	        -15394.9	         14634.7	         -760.18
     782	 1.98655	 1.07794	        -15406.1	         14645.8	        -760.366
     783	 1.98919	 1.07052	        -15425.9	         14665.2	        -760.634
     784	 1.99235	 1.06144	        -15449.4	         14688.5	        -760.841
     785	 1.99547	 1.05239	        -15472.5	         14711.5	        -760.988
     786	  1.9981	 1.04475	          -15492	         14730.9	        -761.143
     787	 1.99986	 1.03968	        -15505.1	         14743.8	        -761.227
     788	 2.00057	 1.03779	        -15510.2	         14749.1	        -761.108
     789	 2.00047	 1.03844	        -15509.2	         14748.4	        -760.862
     790	 2.00003	 1.04019	        -15505.8	         14745.1	        -760.713
     791	 1.99962	 1.04191	        -15502.8	         14742.1	        -760.727
     792	 1.99938	 1.04321	        -15501.1	         14740.4	        -760.714
     793	 1.99948	  1.0436	        -15501.7	         14741.1	         -760.62
     794	 2.00011	 1.04242	        -15506.4	         14745.7	        -760.636
     795	 2.00128	 1.03968	          -15515	         14754.3	        -760.704
     796	 2.00279	 1.03592	        -15526.3	         14765.5	        -760.828
     797	 2.00434	 1.03203	        -15537.8	         14776.9	         -760.94
     798	 2.00569	 1.02879	        -15547.8	         14786.8	         -760.91
     799	 2.00681	  1.0263	        -15555.9	         14795.1	        -760.864
     800	 2.00771	 1.02452	        -15562.6	         14801.7	        -760.934
     801	 2.00824	 1.02395	        -15566.7	         14805.6	        -761.046
     802	 2.00818	 1.02528	        -15566.3	         14805.2	        -761.107
     803	 2.00737	 1.02898	        -15560.3	         14799.2	        -761.153
     804	 2.00572	 1.03526	        -15548.2	           14787	        -761.164
     805	 2.00331	 1.04395	        -15530.3	         14769.3	        -761.016
     806	 2.00055	 1.05389	        -15509.7	           14749	        -760.687
     807	 1.99813	 1.06301	        -15491.6	         14731.1	        -760.505
     808	 1.99643	 1.07012	        -15479.3	         14718.6	        -760.712
     809	 1.99517	 1.07606	        -15470.3	         14709.3	        -761.002
     810	 1.99382	 1.08233	        -15460.5	         14699.3	        -761.166
     811	 1.99201	 1.08986	        -15447.3	           14686	        -761.245
     812	 1.98963	 1.09897	        -15429.6	         14668.4	        -761.129
     813	 1.98691	 1.10886	        -15409.2	         14648.5	        -760.787
     814	 1.98454	 1.11749	        -15391.4	           14631	        -760.438
     815	 1.98316	 1.12286	        -15381.2	         14620.8	        -760.358
     816	 1.98294	 1.12445	        -15379.8	         14619.2	        -760.587
     817	 1.98346	 1.12347	          -15384	           14623	        -760.923
     818	 1.98408	 1.12184	        -15388.8	         14627.6	        -761.184
     819	 1.98428	 1.12107	        -15390.3	           14629	        -761.269
     820	 1.98388	 1.12166	        -15387.3	         14626.1	        -761.179
     821	 1.98305	 1.12313	          -15381	           14620	        -761.031
     822	  1.9821	 1.12458	        -15373.9	           14613	        -760.917
     823	 1.98131	 1.12524	          -15368	         14607.1	        -760.821
     824	 1.98093	  1.1244	        -15365.1	         14604.4	        -760.732
     825	 1.98119	 1.12144	          -15367	         14606.3	        -760.688
     826	 1.98221	 1.11605	        -15374.6	         14613.8	        -760.756
     827	 1.98383	 1.10873	        -15386.8	         14625.8	        -761.007
     828	 1.98553	 1.10106	        -15399.6	         14638.3	        -761.301
     829	 1.98672	 1.09492	        -15408.3	           14647	         -761.33
     830	 1.98721	 1.09085	        -15411.7	         14650.6	        -761.095
     831	 1.98729	 1.08804	        -15412.1	         14651.2	        -760.863
     832	 1.98731	 1.08548	        -15412.1	         14651.4	        -760.731
     833	 1.98749	 1.08261	        -15413.2	         14652.7	        -760.582
     834	 1.98805	 1.07877	        -15417.2	         14656.8	        -760.396
     835	 1.98925	 1.07323	          -15426	         14665.7	        -760.315
     836	 1.99117	 1.06579	        -15440.2	         14679.8	        -760.384
     837	 1.99357	 1.05716	        -15458.1	         14697.5	        -760.552
     838	 1.99602	 1.04867	        -15476.4	         14715.6	        -760.844
     839	 1.99783	 1.04233	        -15490.2	         14728.9	        -761.248
     840	 1.99819	 1.04057	        -15493.2	         14731.6	        -761.593
     841	 1.99648	 1.04522	        -15480.6	           14719	        -761.668
     842	 1.99268	 1.05632	        -15452.3	           14691	        -761.375
     843	 1.98754	 1.07163	        -15413.9	           14653	        -760.851
     844	 1.98221	 1.08758	        -15374.3	         14613.8	        -760.487
     845	 1.97757	 1.10147	        -15340.1	         14579.6	        -760.468
     846	 1.97389	 1.11247	        -15312.9	         14552.5	        -760.462
     847	 1.97124	 1.12018	        -15293.4	           14533	        -760.409
     848	 1.96973	 1.12417	        -15282.2	         14521.8	        -760.392
     849	 1.96943	 1.12419	          -15280	         14519.6	        -760.366
     850	 1.97037	 1.12011	        -15286.9	         14526.5	        -760.378
     851	 1.97251	  1.1121	        -15302.8	         14542.3	        -760.523
     852	 1.97553	 1.10115	        -15325.3	         14564.6	        -760.739
     853	 1.97901	 1.08871	        -15351.1	         14590.2	        -760.886
     854	 1.98255	 1.07599	        -15377.3	         14616.3	        -760.956
     855	 1.98591	 1.06387	        -15402.1	           14641	        -761.047
     856	 1.98875	 1.05335	        -15423.3	           14662	        -761.289
     857	 1.99053	  1.0461	        -15436.6	         14675.1	        -761.554
     858	 1.99073	 1.04372	        -15438.1	         14676.6	        -761.519
     859	 1.98938	 1.04607	        -15427.8	         14666.6	        -761.211
     860	 1.98706	 1.05133	        -15410.4	         14649.5	        -760.852
     861	 1.98455	 1.05716	        -15391.6	           14631	        -760.593
     862	 1.98249	 1.06156	        -15376.3	         14615.9	        -760.401
     863	 1.98143	 1.06293	        -15368.2	         14608.1	        -760.132
     864	 1.98194	 1.05955	        -15371.8	         14611.8	        -759.935
     865	 1.98434	  1.0504	        -15389.5	         14629.5	        -760.052
     866	 1.98833	 1.03643	        -15419.3	         14658.9	         -760.42
     867	 1.99307	 1.02014	        -15454.7	         14693.8	        -760.852
     868	 1.99756	 1.00457	        -15488.1	         14726.9	         -761.21
     869	 2.00094	0.992281	        -15513.2	         14751.8	        -761.338
     870	 2.00285	0.984457	        -15527.1	         14765.9	         -761.19
     871	 2.00346	0.980639	        -15531.3	         14770.4	        -760.896
     872	 2.00326	0.979402	        -15529.6	         14768.9	        -760.648
     873	 2.00273	0.979404	        -15525.6	           14765	        -760.547
     874	 2.00212	0.979959	        -15521.1	         14760.5	        -760.523
     875	 2.00151	 0.98083	        -15516.6	           14756	        -760.576
     876	 2.00081	0.982212	        -15511.6	         14750.9	        -760.724
     877	 1.99982	0.984727	        -15504.4	         14743.6	        -760.829
     878	 1.99839	0.988736	        -15493.8	           14733	        -760.816
     879	 1.99659	0.993943	        -15480.5	         14719.7	         -760.76
     880	 1.99462	 0.99973	        -15465.9	         14705.2	        -760.698
     881	  1.9927	 1.00538	        -15451.7	         14691.1	        -760.568
     882	 1.99117	 1.00989	        -15440.2	         14679.9	        -760.365
     883	 1.99046	 1.01194	        -15434.7	         14674.6	        -760.157
     884	 1.99098	 1.01035	        -15438.4	         14678.4	        -759.991
     885	 1.99299	 1.00433	        -15453.2	         14693.2	        -759.996
     886	 1.99641	0.994256	        -15478.7	         14718.4	        -760.288
     887	 2.00057	0.982133	        -15509.9	         14749.1	        -760.771
     888	 2.00448	0.971045	        -15539.1	         14777.9	        -761.203
     889	 2.00722	 0.96375	        -15559.5	         14798.1	        -761.398
     890	 2.00839	0.961573	        -15568.1	         14806.7	        -761.345
     891	 2.00806	0.964286	        -15565.5	         14804.3	        -761.175
     892	 2.00661	0.970819	        -15554.6	         14793.6	         -761.03
     893	 2.00438	0.980095	        -15538.1	         14777.2	        -760.971
     894	 2.00155	0.991474	        -15517.4	         14756.3	        -761.042
     895	 1.99812	 1.00488	        -15492.1	         14731.1	         -761.05
     896	 1.99422	 1.01986	        -15463.1	         14702.3	        -760.807
     897	 1.99035	 1.03476	        -15434.3	         14673.8	        -760.543
     898	 1.98704	 1.04783	        -15409.9	         14649.4	        -760.472
     899	 1.98458	 1.05822	        -15391.7	         14631.3	        -760.422
     900	 1.98315	 1.06535	          -15381	         14620.7	        -760.359
     901	 1.98288	 1.06872	        -15379.1	         14618.7	        -760.357
     902	 1.98385	 1.06821	        -15386.2	         14625.9	        -760.301
     903	 1.98608	 1.06376	        -15402.7	         14642.3	        -760.403
     904	 1.98922	 1.05632	        -15426.3	         14665.5	        -760.806
     905	 1.99246	 1.04841	        -15450.6	         14689.3	         -761.23
     906	 1.99494	 1.04265	          -15469	         14707.6	        -761.382
     907	 1.99629	 1.04014	        -15478.8	         14717.6	        -761.233
     908	 1.99678	 1.04015	        -15482.1	         14721.1	        -760.958
     909	 1.99695	 1.04112	        -15483.1	         14722.4	        -760.743
     910	 1.99725	 1.04175	        -15485.4	         14724.6	        -760.754
     911	 1.99768	 1.04206	        -15488.8	         14727.8	        -760.963
     912	 1.99788	 1.04315	        -15490.3	         14729.3	        -761.044
     913	 1.99762	 1.04564	        -15488.3	         14727.4	        -760.919
     914	 1.99705	 1.04905	        -15483.9	         14723.2	        -760.727
     915	 1.99647	 1.05242	        -15479.5	         14718.9	        -760.589
     916	 1.99614	 1.05496	          -15477	         14716.4	        -760.534
     917	 1.99618	 1.05629	        -15477.3	         14716.7	        -760.606
     918	 1.99645	 1.05674	        -15479.5	         14718.8	        -760.745
     919	 1.99679	 1.05689	        -15481.9	         14721.2	        -760.655
     920	 1.99732	 1.05635	        -15485.6	         14725.2	        -760.428
     921	  1.9984	 1.05406	        -15493.5	         14733.1	        -760.379
     922	 2.00006	 1.04991	          -15506	         14745.4	        -760.603
     923	 2.00187	 1.04528	        -15519.7	         14758.7	        -760.978
     924	 2.00311	 1.04233	        -15529.1	         14767.8	        -761.243
     925	 2.00327	 1.04256	        -15530.2	           14769	        -761.211
     926	  2.0024	 1.04588	        -15523.6	         14762.6	        -760.972
     927	 2.00092	   1.051	        -15512.4	         14751.7	        -760.737
     928	 1.99929	 1.05655	        -15500.3	         14739.7	        -760.598
     929	 1.99785	 1.06163	        -15489.5	           14729	         -760.52
     930	 1.99675	 1.06572	        -15481.4	         14720.9	        -760.499
     931	 1.99604	 1.06868	        -15476.3	         14715.7	        -760.564
     932	 1.99563	 1.07084	        -15473.3	         14712.7	        -760.638
     933	 1.99537	  1.0726	        -15471.5	         14710.8	         -760.68
     934	 1.99516	 1.07427	          -15470	         14709.2	        -760.801
     935	 1.99477	 1.07648	        -15467.4	         14706.4	        -761.004
     936	 1.99391	 1.08011	        -15461.1	           14700	         -761.09
     937	 1.99251	 1.08535	        -15450.7	         14689.7	         -760.98
     938	 1.99085	  1.0913	        -15438.3	         14677.4	        -760.831
     939	 1.98933	 1.09675	          -15427	         14666.2	        -760.746
     940	 1.98828	  1.1007	        -15419.2	         14658.6	        -760.626
     941	 1.98807	 1.10209	        -15417.5	           14657	        -760.524
     942	 1.98889	 1.10025	        -15423.7	           14663	         -760.73
     943	 1.99037	 1.09616	          -15435	         14673.9	        -761.087
     944	 1.99192	  1.0917	        -15446.5	         14685.3	        -761.154
     945	 1.99329	 1.08744	        -15456.5	         14695.5	        -760.998
     946	 1.99466	 1.08287	        -15466.5	         14705.5	        -760.907
     947	 1.99612	 1.07773	        -15477.2	         14716.3	        -760.871
     948	 1.99768	 1.07205	        -15488.7	         14727.8	        -760.838
     949	 1.99934	 1.06592	        -15500.8	           14740	        -760.813
     950	 2.00108	 1.05943	        -15513.6	         14752.8	        -760.773
     951	 2.00293	 1.05265	        -15527.2	         14766.5	        -760.751
     952	 2.00487	 1.04576	        -15541.6	         14780.8	          -760.8
     953	 2.00675	 1.03931	        -15555.5	         14794.6	        -760.912
     954	 2.00828	 1.03422	          -15567	         14805.9	          -761.1
     955	 2.00905	 1.03177	          -15573	         14811.6	        -761.374
     956	 2.00854	 1.03352	        -15569.4	         14807.8	        -761.528
     957	 2.00652	 1.04018	        -15554.3	         14792.9	        -761.358
     958	 2.00336	 1.05063	        -15530.6	         14769.7	        -760.985
     959	 1.99983	 1.06255	        -15504.3	         14743.6	         -760.65
     960	 1.99665	 1.07373	        -15480.7	         14720.2	        -760.483
     961	 1.99422	 1.08298	        -15462.7	         14702.3	        -760.486
     962	 1.99257	 1.09011	        -15450.7	         14690.1	        -760.593
     963	 1.99151	 1.09565	        -15443.1	         14682.3	        -760.776
     964	 1.99065	 1.10064	        -15437.1	           14676	        -761.055
     965	 1.98946	 1.10658	        -15428.6	         14667.2	        -761.398
     966	 1.98731	 1.11517	          -15413	         14651.4	        -761.676
     967	 1.98377	 1.12754	          -15387	         14625.2	        -761.706
     968	 1.97895	 1.14321	        -15351.1	         14589.7	        -761.328
     969	 1.97377	 1.15936	        -15312.2	         14551.6	        -760.641
     970	 1.96967	 1.17161	        -15281.5	         14521.4	        -760.107
     971	 1.96776	 1.17649	        -15267.3	         14507.3	        -760.013
     972	 1.96836	 1.17313	        -15271.9	         14511.7	        -760.155
     973	 1.97121	 1.16227	          -15293	         14532.7	        -760.299
     974	 1.97593	 1.14513	        -15327.9	         14567.5	        -760.407
     975	 1.98214	 1.12297	        -15373.8	         14613.3	        -760.545
     976	 1.98933	 1.09751	        -15427.1	         14666.2	        -760.837
     977	 1.99668	 1.07136	        -15481.6	         14720.4	        -761.236
     978	 2.00321	 1.04767	        -15530.1	         14768.5	        -761.541
     979	 2.00808	 1.02907	        -15566.1	         14804.4	        -761.682
     980	 2.01083	 1.01708	        -15586.4	         14824.7	         -761.67
     981	 2.01138	 1.01202	        -15590.2	         14828.7	        -761.494
     982	 2.01004	 1.01294	        -15580.1	         14818.9	        -761.171
     983	  2.0075	 1.01786	          -15561	         14800.2	        -760.778
     984	  2.0046	 1.02422	        -15539.3	         14778.8	        -760.464
     985	 2.00202	 1.02992	        -15520.2	         14759.8	        -760.379
     986	 2.00004	 1.03408	        -15505.7	         14745.2	        -760.464
     987	 1.99865	 1.03677	        -15495.4	         14734.9	        -760.477
     988	 1.99788	 1.03787	        -15489.6	         14729.2	        -760.358
     989	 1.99793	 1.03679	          -15490	         14729.6	        -760.359
     990	 1.99879	 1.03363	        -15496.5	           14736	        -760.578
     991	 2.00004	 1.02967	        -15506.1	         14745.2	        -760.829
     992	 2.00117	 1.02651	        -15514.5	         14753.5	        -761.064
     993	 2.00161	 1.02575	          -15518	         14756.7	        -761.297
     994	 2.00089	 1.02876	        -15512.8	         14751.4	         -761.38
     995	 1.99884	 1.03602	        -15497.6	         14736.4	        -761.246
     996	 1.99573	 1.04662	        -15474.4	         14713.4	        -760.976
     997	 1.99215	 1.05871	        -15447.7	           14687	        -760.652
     998	 1.98886	    1.07	        -15423.1	         14662.8	        -760.306
     999	 1.98662	 1.07816	        -15406.3	         14646.3	        -760.069
