    Step 	 temperature 	 pressure 	 Potential Energy 	 Kinetic Energy 	 Sum Energy

       0	 2.18871	-1.54267	        -2487.56	         2393.64	        -93.9222
       1	 2.18877	-1.53928	        -2487.63	          2393.7	        -93.9285
       2	 2.18888	 -1.5289	        -2487.77	         2393.83	        -93.9462
       3	 2.18885	 -1.5109	        -2487.77	         2393.79	        -93.9768
       4	 2.18833	-1.48423	        -2487.25	         2393.22	        -94.0234
       5	 2.18681	-1.44732	        -2485.65	         2391.56	        -94.0901
       6	 2.18354	-1.39801	        -2482.16	         2387.98	         -94.182
       7	 2.17752	-1.33341	         -2475.7	          2381.4	        -94.3042
       8	 2.16743	-1.24988	        -2464.82	         2370.36	        -94.4587
       9	 2.15166	-1.14312	        -2447.76	         2353.12	         -94.637
      10	 2.12849	-1.00869	        -2422.59	         2327.78	         -94.809
      11	 2.09653	-0.843398	        -2387.75	         2292.83	        -94.9124
      12	 2.05554	-0.647612	        -2342.89	         2248.02	        -94.8701
      13	 2.00732	-0.427805	        -2289.94	         2195.28	        -94.6543
      14	  1.9558	-0.196986	        -2233.29	         2138.95	        -94.3463
      15	 1.90596	0.028737	        -2178.53	         2084.45	        -94.0863
      16	 1.86202	0.235593	        -2130.36	          2036.4	        -93.9621
      17	 1.82629	0.415625	        -2091.29	         1997.33	        -93.9579
      18	 1.79929	0.566357	        -2061.81	         1967.81	        -93.9979
      19	 1.78066	0.688147	        -2041.46	         1947.43	        -94.0309
      20	  1.7698	0.782182	        -2029.63	         1935.56	        -94.0682
      21	 1.76591	0.850525	        -2025.46	         1931.31	        -94.1456
      22	 1.76769	0.896993	        -2027.51	         1933.25	        -94.2631
      23	 1.77342	0.926807	        -2033.87	         1939.52	        -94.3588
      24	 1.78183	0.944213	        -2043.07	         1948.71	        -94.3553
      25	 1.79278	0.950032	           -2055	         1960.69	        -94.3057
      26	 1.80651	0.943869	        -2070.08	          1975.7	        -94.3844
      27	 1.82189	 0.92955	        -2087.05	         1992.52	        -94.5351
      28	 1.83704	0.913338	        -2103.66	         2009.08	        -94.5816
      29	 1.85102	0.898222	        -2118.94	         2024.37	        -94.5683
      30	 1.86369	0.884779	        -2132.83	         2038.23	        -94.5989
      31	 1.87474	0.874287	        -2144.94	         2050.31	        -94.6231
      32	 1.88416	0.867239	        -2155.15	         2060.61	        -94.5377
      33	 1.89317	0.860263	        -2164.85	         2070.47	        -94.3803
      34	 1.90371	0.847769	        -2176.31	         2081.99	        -94.3221
      35	 1.91648	0.827808	        -2190.39	         2095.96	        -94.4278
      36	 1.93026	0.804322	         -2205.6	         2111.02	        -94.5764
      37	  1.9431	0.783206	        -2219.73	         2125.06	        -94.6688
      38	 1.95363	0.768554	        -2231.28	         2136.58	         -94.706
      39	 1.96127	0.762177	        -2239.64	         2144.93	        -94.7111
      40	 1.96603	0.764184	        -2244.82	         2150.14	        -94.6798
      41	 1.96853	0.772923	        -2247.48	         2152.87	         -94.605
      42	 1.96996	0.784994	        -2248.94	         2154.43	        -94.5155
      43	 1.97163	0.796481	        -2250.72	         2156.26	        -94.4611
      44	 1.97441	0.804875	        -2253.77	          2159.3	        -94.4685
      45	  1.9783	0.810119	        -2258.07	         2163.55	        -94.5191
      46	 1.98271	0.813936	        -2262.94	         2168.37	        -94.5635
      47	 1.98703	0.818065	        -2267.68	          2173.1	        -94.5814
      48	 1.99091	0.823399	        -2271.94	         2177.35	        -94.5975
      49	 1.99412	0.830583	        -2275.49	         2180.86	          -94.63
      50	 1.99635	 0.84047	        -2277.95	         2183.29	        -94.6595
      51	 1.99744	0.853451	        -2279.15	         2184.48	        -94.6665
      52	 1.99757	0.868788	        -2279.27	         2184.62	        -94.6429
      53	 1.99748	0.884258	        -2279.08	         2184.53	        -94.5472
      54	 1.99872	0.895259	         -2280.3	         2185.88	        -94.4163
      55	 2.00287	0.896778	        -2284.84	         2190.42	        -94.4151
      56	 2.00994	0.888779	        -2292.69	         2198.15	         -94.543
      57	 2.01837	 0.87614	           -2302	         2207.37	         -94.633
      58	 2.02671	0.863224	        -2311.15	         2216.49	        -94.6623
      59	 2.03406	0.852652	        -2319.27	         2224.53	        -94.7364
      60	 2.03919	0.848233	           -2325	         2230.14	        -94.8596
      61	 2.04049	0.854914	        -2326.49	         2231.56	        -94.9317
      62	  2.0371	0.875302	        -2322.74	         2227.86	        -94.8882
      63	 2.02981	0.907171	         -2314.6	         2219.87	        -94.7214
      64	 2.02103	0.943354	        -2304.77	         2210.28	        -94.4914
      65	 2.01395	0.974411	        -2296.87	         2202.54	        -94.3361
      66	 2.01073	0.993876	        -2293.38	         2199.02	        -94.3621
      67	 2.01124	 1.00216	        -2294.11	         2199.57	        -94.5349
      68	 2.01339	 1.00546	        -2296.66	         2201.92	        -94.7363
      69	 2.01459	 1.01136	         -2298.1	         2203.24	        -94.8604
      70	 2.01322	 1.02472	        -2296.61	         2201.74	        -94.8696
      71	 2.00909	 1.04596	        -2292.03	         2197.22	        -94.8115
      72	 2.00298	 1.07266	        -2285.31	         2190.55	        -94.7653
      73	 1.99576	 1.10224	         -2277.4	         2182.65	        -94.7534
      74	 1.98801	 1.13294	         -2268.9	         2174.17	        -94.7363
      75	  1.9803	 1.16288	        -2260.46	         2165.74	        -94.7171
      76	 1.97316	  1.1903	        -2252.65	         2157.93	        -94.7195
      77	 1.96696	  1.2141	        -2245.83	         2151.16	        -94.6709
      78	 1.96257	 1.23171	        -2240.91	         2146.36	        -94.5502
      79	  1.9615	 1.23858	        -2239.64	         2145.18	        -94.4617
      80	 1.96476	 1.23171	        -2243.24	         2148.74	        -94.4938
      81	 1.97184	 1.21273	        -2251.12	         2156.49	        -94.6235
      82	   1.981	 1.18711	        -2261.25	         2166.51	        -94.7446
      83	 1.99041	 1.16048	        -2271.59	          2176.8	        -94.7919
      84	 1.99901	 1.13616	        -2281.01	          2186.2	        -94.8045
      85	 2.00616	 1.11622	        -2288.86	         2194.02	        -94.8443
      86	 2.01102	 1.10328	        -2294.24	         2199.33	        -94.9118
      87	  2.0126	 1.10038	           -2296	         2201.06	        -94.9483
      88	 2.01047	 1.10881	        -2293.62	         2198.73	         -94.886
      89	 2.00555	 1.12582	        -2288.08	         2193.35	        -94.7273
      90	 1.99994	 1.14499	        -2281.78	         2187.22	        -94.5579
      91	 1.99595	 1.15941	        -2277.32	         2182.86	        -94.4626
      92	 1.99491	 1.16507	         -2276.2	         2181.72	        -94.4803
      93	 1.99664	  1.1624	        -2278.21	         2183.61	        -94.5985
      94	 1.99969	  1.1557	        -2281.69	         2186.95	        -94.7414
      95	 2.00227	 1.15026	        -2284.59	         2189.77	        -94.8201
      96	 2.00337	 1.14901	        -2285.78	         2190.97	        -94.8088
      97	  2.0031	 1.15155	        -2285.43	         2190.68	        -94.7579
      98	 2.00209	 1.15587	        -2284.32	         2189.57	        -94.7433
      99	 2.00058	 1.16108	        -2282.71	         2187.92	        -94.7967
     100	 1.99803	  1.1686	           -2280	         2185.13	        -94.8703
     101	 1.99372	  1.1804	        -2275.29	         2180.41	        -94.8754
     102	 1.98782	 1.19589	        -2268.72	         2173.96	        -94.7541
     103	 1.98204	 1.21004	        -2262.19	         2167.64	        -94.5513
     104	 1.97892	 1.21524	        -2258.65	         2164.23	        -94.4154
     105	 1.98009	 1.20675	        -2259.96	         2165.51	        -94.4502
     106	 1.98505	 1.18632	        -2265.53	         2170.93	        -94.5945
     107	 1.99176	 1.16022	        -2273.01	         2178.27	        -94.7365
     108	 1.99799	 1.13518	        -2279.92	         2185.09	        -94.8338
     109	 2.00209	  1.1163	        -2284.46	         2189.57	        -94.8848
     110	 2.00314	 1.10648	        -2285.59	         2190.71	        -94.8822
     111	  2.0011	 1.10602	        -2283.29	         2188.48	        -94.8118
     112	 1.99697	 1.11216	        -2278.65	         2183.97	        -94.6787
     113	 1.99258	 1.11962	        -2273.71	         2179.17	        -94.5456
     114	  1.9897	 1.12311	        -2270.52	         2176.02	         -94.503
     115	 1.98901	 1.12065	        -2269.82	         2175.26	        -94.5561
     116	 1.98998	 1.11383	        -2270.95	         2176.33	        -94.6228
     117	 1.99177	 1.10515	        -2272.94	         2178.28	        -94.6527
     118	 1.99385	 1.09611	        -2275.22	         2180.56	        -94.6658
     119	 1.99587	 1.08769	        -2277.47	         2182.77	        -94.7012
     120	 1.99726	 1.08155	        -2279.06	         2184.29	        -94.7701
     121	 1.99713	 1.08031	        -2278.98	         2184.14	        -94.8366
     122	 1.99472	 1.08611	        -2276.35	         2181.51	         -94.841
     123	 1.99015	 1.09858	        -2271.27	         2176.51	        -94.7616
     124	 1.98456	  1.1141	        -2265.04	          2170.4	        -94.6439
     125	 1.97964	 1.12752	        -2259.56	         2165.01	        -94.5404
     126	 1.97692	 1.13412	        -2256.51	         2162.05	        -94.4624
     127	 1.97753	 1.13051	        -2257.13	         2162.71	        -94.4233
     128	 1.98193	  1.1152	        -2261.98	         2167.53	        -94.4495
     129	 1.98968	 1.08958	        -2270.54	            2176	        -94.5403
     130	 1.99944	  1.0578	        -2281.33	         2186.67	         -94.662
     131	 2.00944	 1.02543	        -2292.37	          2197.6	        -94.7689
     132	 2.01804	0.997624	        -2301.84	         2207.01	        -94.8292
     133	 2.02421	0.977852	        -2308.61	         2213.76	        -94.8533
     134	 2.02737	0.968095	         -2312.1	         2217.21	        -94.8839
     135	 2.02698	0.970164	        -2311.72	         2216.78	        -94.9391
     136	 2.02237	0.986183	        -2306.74	         2211.74	        -94.9942
     137	 2.01301	 1.01768	        -2296.54	         2201.51	        -95.0379
     138	  1.9987	 1.06491	        -2280.94	         2185.86	         -95.071
     139	 1.97981	 1.12643	        -2260.24	         2165.21	        -95.0282
     140	 1.95816	 1.19664	        -2236.31	         2141.53	         -94.776
     141	 1.93826	 1.26199	        -2214.13	         2119.77	        -94.3543
     142	 1.92586	 1.30459	        -2200.46	         2106.21	        -94.2437
     143	 1.92251	   1.319	        -2197.23	         2102.54	        -94.6894
     144	 1.92335	 1.31977	        -2198.63	         2103.47	          -95.16
     145	 1.92262	 1.32387	        -2197.93	         2102.67	        -95.2591
     146	 1.91877	 1.33546	        -2193.48	         2098.46	        -95.0161
     147	 1.91482	 1.34564	        -2188.78	         2094.13	        -94.6435
     148	 1.91537	 1.34077	         -2189.2	         2094.74	        -94.4588
     149	 1.92267	 1.31438	        -2197.32	         2102.72	        -94.5976
     150	  1.9349	  1.2723	        -2210.95	          2116.1	        -94.8537
     151	 1.94837	 1.22587	        -2225.82	         2130.82	        -94.9936
     152	 1.96036	 1.18323	        -2238.93	         2143.94	        -94.9916
     153	 1.96996	 1.14731	        -2249.35	         2154.43	          -94.92
     154	 1.97731	 1.11789	        -2257.32	         2162.47	        -94.8453
     155	 1.98293	  1.0938	        -2263.39	         2168.62	        -94.7705
     156	 1.98751	 1.07323	         -2268.3	         2173.63	        -94.6748
     157	 1.99203	 1.05343	        -2273.17	         2178.57	        -94.5954
     158	 1.99732	 1.03204	        -2278.94	         2184.35	        -94.5871
     159	 2.00342	  1.0091	        -2285.66	         2191.02	        -94.6415
     160	 2.00959	0.986932	        -2292.51	         2197.77	        -94.7354
     161	 2.01452	0.969448	        -2298.03	         2203.16	        -94.8711
     162	 2.01648	0.961705	        -2300.29	         2205.31	        -94.9817
     163	 2.01431	0.967284	        -2297.88	         2202.93	        -94.9508
     164	 2.00859	0.984368	        -2291.45	         2196.68	        -94.7647
     165	 2.00186	 1.00545	        -2283.86	         2189.32	        -94.5368
     166	  1.9971	 1.02165	        -2278.53	         2184.12	        -94.4102
     167	 1.99589	  1.0282	        -2277.26	         2182.79	        -94.4775
     168	 1.99725	 1.02788	        -2278.97	         2184.28	        -94.6976
     169	 1.99828	 1.02925	        -2280.31	          2185.4	        -94.9104
     170	 1.99604	 1.04077	        -2277.96	         2182.95	        -95.0053
     171	 1.98915	 1.06626	        -2270.39	         2175.42	        -94.9717
     172	 1.97812	   1.104	        -2258.19	         2163.36	        -94.8317
     173	  1.9651	  1.1475	        -2243.74	         2149.12	        -94.6276
     174	  1.9531	 1.18756	        -2230.44	            2136	        -94.4458
     175	 1.94486	 1.21587	        -2221.35	         2126.99	        -94.3643
     176	 1.94174	 1.22816	        -2217.98	         2123.58	        -94.4015
     177	 1.94343	 1.22525	        -2219.94	         2125.43	        -94.5147
     178	 1.94846	 1.21148	        -2225.56	         2130.93	          -94.63
     179	 1.95509	 1.19205	        -2232.89	         2138.17	        -94.7217
     180	 1.96178	 1.17164	        -2240.29	         2145.49	        -94.8003
     181	 1.96729	 1.15424	        -2246.36	         2151.51	        -94.8482
     182	 1.97088	 1.14238	        -2250.28	         2155.44	        -94.8405
     183	 1.97258	 1.13631	        -2252.09	          2157.3	        -94.7879
     184	 1.97303	 1.13439	        -2252.52	         2157.79	        -94.7311
     185	 1.97296	 1.13464	        -2252.42	         2157.72	        -94.7013
     186	  1.9728	 1.13594	        -2252.25	         2157.54	        -94.7075
     187	 1.97249	 1.13847	        -2251.94	          2157.2	        -94.7433
     188	 1.97163	 1.14334	        -2251.03	         2156.26	         -94.769
     189	    1.97	  1.1512	        -2249.21	         2154.47	        -94.7411
     190	 1.96795	 1.16082	        -2246.92	         2152.24	        -94.6836
     191	 1.96615	 1.17005	        -2244.94	         2150.27	        -94.6658
     192	 1.96485	 1.17805	        -2243.54	         2148.85	        -94.6884
     193	 1.96382	 1.18545	        -2242.43	         2147.72	        -94.7038
     194	 1.96283	 1.19277	        -2241.34	         2146.63	        -94.7106
     195	 1.96176	 1.20018	        -2240.18	         2145.46	        -94.7156
     196	 1.96066	 1.20748	        -2238.95	         2144.26	        -94.6897
     197	 1.95999	 1.21328	        -2238.16	         2143.54	        -94.6241
     198	 1.96065	 1.21486	        -2238.83	         2144.26	        -94.5661
     199	 1.96343	 1.20991	        -2241.86	          2147.3	        -94.5614
     200	 1.96845	 1.19822	        -2247.38	         2152.78	        -94.6046
     201	 1.97508	 1.18177	        -2254.72	         2160.03	        -94.6876
     202	 1.98199	 1.16458	        -2262.42	         2167.59	         -94.824
     203	 1.98719	 1.15272	        -2268.25	         2173.28	        -94.9759
     204	 1.98857	 1.15259	        -2269.85	         2174.79	         -95.057
     205	 1.98501	 1.16759	        -2265.91	         2170.89	        -95.0214
     206	 1.97696	 1.19635	        -2256.99	         2162.09	        -94.8962
     207	 1.96614	 1.23364	        -2245.02	         2150.26	        -94.7624
     208	 1.95448	 1.27345	        -2232.21	         2137.51	        -94.6994
     209	 1.94313	 1.31193	        -2219.81	          2125.1	        -94.7125
     210	  1.9324	 1.34774	        -2208.09	         2113.37	        -94.7234
     211	 1.92262	 1.37947	        -2197.31	         2102.67	        -94.6432
     212	 1.91514	 1.40272	        -2188.96	         2094.49	        -94.4727
     213	  1.9122	 1.41045	        -2185.61	         2091.28	        -94.3349
     214	 1.91549	 1.39744	        -2189.23	         2094.87	        -94.3566
     215	 1.92468	 1.36466	        -2199.44	         2104.92	        -94.5174
     216	 1.93764	 1.31861	        -2213.78	          2119.1	        -94.6826
     217	 1.95199	 1.26668	        -2229.55	         2134.79	         -94.756
     218	  1.9663	 1.21347	        -2245.18	         2150.43	        -94.7506
     219	 1.98006	 1.16088	        -2260.21	         2165.48	        -94.7264
     220	 1.99312	 1.10999	        -2274.47	         2179.76	        -94.7115
     221	 2.00521	 1.06212	        -2287.69	         2192.98	        -94.7142
     222	 2.01586	 1.01912	        -2299.37	         2204.62	        -94.7472
     223	 2.02428	0.983685	        -2308.63	         2213.83	        -94.8019
     224	 2.02954	0.958851	        -2314.42	         2219.58	        -94.8433
     225	 2.03101	0.946635	        -2316.02	         2221.19	        -94.8333
     226	 2.02888	0.946602	        -2313.61	         2218.86	        -94.7448
     227	 2.02444	0.955021	         -2308.6	         2214.01	        -94.5913
     228	 2.01977	0.965682	        -2303.36	         2208.91	        -94.4572
     229	 2.01667	0.973142	        -2299.95	         2205.51	        -94.4366
     230	 2.01552	0.976059	        -2298.78	         2204.26	        -94.5198
     231	 2.01542	 0.97697	        -2298.77	         2204.15	        -94.6197
     232	 2.01511	0.979282	        -2298.48	          2203.8	        -94.6812
     233	 2.01376	0.985061	        -2297.02	         2202.32	        -94.6974
     234	 2.01121	  0.9945	        -2294.21	         2199.54	        -94.6703
     235	 2.00793	 1.00595	        -2290.56	         2195.95	        -94.6073
     236	 2.00488	 1.01638	        -2287.15	         2192.62	         -94.535
     237	 2.00312	 1.02245	        -2285.18	         2190.69	        -94.4889
     238	 2.00335	 1.02201	        -2285.43	         2190.95	        -94.4836
     239	 2.00571	 1.01466	        -2288.04	         2193.53	        -94.5097
     240	 2.00981	 1.00161	        -2292.57	         2198.01	        -94.5596
     241	 2.01487	0.985272	        -2298.17	         2203.54	        -94.6219
     242	 2.01994	0.968652	        -2303.75	         2209.08	        -94.6703
     243	 2.02418	0.954367	        -2308.43	         2213.73	        -94.6998
     244	   2.027	 0.94433	        -2311.55	         2216.81	        -94.7404
     245	 2.02773	0.940558	        -2312.41	         2217.61	        -94.8037
     246	 2.02562	0.945354	        -2310.14	          2215.3	        -94.8483
     247	 2.02028	0.959821	        -2304.28	         2209.46	        -94.8228
     248	 2.01231	0.982093	        -2295.45	         2200.74	        -94.7094
     249	 2.00352	 1.00676	        -2285.65	         2191.13	        -94.5169
     250	 1.99669	 1.02558	        -2277.97	         2183.66	        -94.3073
     251	 1.99459	 1.03022	        -2275.57	         2181.37	        -94.2052
     252	 1.99854	  1.0168	        -2279.96	         2185.69	        -94.2748
     253	 2.00764	0.988127	        -2290.09	         2195.64	        -94.4462
     254	 2.01955	0.951355	        -2303.27	         2208.66	        -94.6142
     255	 2.03175	0.914027	        -2316.73	            2222	        -94.7258
     256	 2.04244	0.881744	        -2328.46	         2233.69	        -94.7708
     257	 2.05066	0.857482	        -2337.45	         2242.68	        -94.7688
     258	 2.05616	0.842149	        -2343.45	          2248.7	        -94.7566
     259	 2.05897	0.835786	        -2346.51	         2251.76	        -94.7512
     260	 2.05915	0.838178	        -2346.71	         2251.97	         -94.739
     261	   2.057	0.848481	        -2344.31	         2249.61	        -94.7019
     262	 2.05313	0.864713	        -2340.02	         2245.38	        -94.6418
     263	 2.04848	0.883975	        -2334.88	         2240.29	        -94.5893
     264	 2.04382	0.903743	        -2329.79	          2235.2	        -94.5932
     265	 2.03923	0.923596	        -2324.84	         2230.18	        -94.6569
     266	 2.03412	0.945247	         -2319.3	         2224.59	        -94.7109
     267	 2.02797	0.970177	        -2312.58	         2217.87	        -94.7058
     268	 2.02089	 0.99792	        -2304.82	         2210.13	        -94.6862
     269	 2.01315	 1.02744	        -2296.39	         2201.66	        -94.7331
     270	 2.00433	 1.05961	        -2286.87	         2192.02	        -94.8453
     271	 1.99356	 1.09685	        -2275.13	         2180.24	        -94.8897
     272	  1.9811	 1.13833	        -2261.33	         2166.61	        -94.7192
     273	 1.96957	 1.17584	         -2248.5	            2154	        -94.4931
     274	 1.96186	 1.20005	         -2240.1	         2145.58	        -94.5247
     275	 1.95822	  1.2104	         -2236.2	          2141.6	        -94.5988
     276	   1.958	 1.20892	        -2235.85	         2141.35	        -94.4948
     277	 1.96205	 1.19284	        -2240.15	         2145.78	        -94.3663
     278	 1.97149	 1.15895	         -2250.5	         2156.11	        -94.3855
     279	 1.98569	 1.10956	        -2266.19	         2171.64	        -94.5553
     280	 2.00207	 1.05284	        -2284.32	         2189.54	        -94.7744
     281	 2.01731	0.999078	        -2301.15	         2206.21	        -94.9428
     282	 2.02874	0.956693	        -2313.71	         2218.71	        -94.9993
     283	 2.03522	 0.92952	        -2320.72	          2225.8	        -94.9208
     284	 2.03748	0.915912	        -2323.02	         2228.27	        -94.7485
     285	 2.03743	0.910457	        -2322.81	         2228.21	        -94.5994
     286	 2.03677	0.908256	        -2322.05	         2227.49	        -94.5596
     287	 2.03597	0.908054	        -2321.23	         2226.62	        -94.6052
     288	 2.03442	0.911628	         -2319.6	         2224.92	        -94.6746
     289	 2.03119	0.921543	        -2316.11	         2221.39	        -94.7259
     290	 2.02564	0.939471	        -2310.06	         2215.32	        -94.7442
     291	 2.01763	0.965536	         -2301.3	         2206.56	        -94.7364
     292	 2.00748	0.998519	        -2290.18	         2195.46	        -94.7159
     293	 1.99579	 1.03634	        -2277.35	         2182.67	        -94.6793
     294	 1.98348	 1.07602	        -2263.82	         2169.22	         -94.606
     295	 1.97196	  1.1132	        -2251.12	         2156.62	        -94.5035
     296	  1.9629	 1.14265	        -2241.14	         2146.72	        -94.4203
     297	  1.9577	 1.16009	        -2235.42	         2141.02	        -94.3968
     298	 1.95686	 1.16389	        -2234.55	         2140.11	        -94.4415
     299	 1.95987	 1.15552	        -2237.94	          2143.4	        -94.5416
     300	 1.96535	 1.13902	        -2244.04	         2149.39	        -94.6492
     301	 1.97177	 1.11909	        -2251.11	         2156.41	        -94.6997
     302	 1.97818	 1.09865	        -2258.11	         2163.42	        -94.6861
     303	  1.9844	 1.07839	        -2264.88	         2170.22	        -94.6561
     304	 1.99052	 1.05827	        -2271.56	         2176.92	        -94.6435
     305	 1.99651	 1.03869	        -2278.11	         2183.47	        -94.6469
     306	 2.00212	 1.02064	        -2284.26	          2189.6	        -94.6632
     307	 2.00692	 1.00551	        -2289.54	         2194.85	         -94.694
     308	 2.01037	0.995064	        -2293.35	         2198.63	        -94.7239
     309	 2.01201	  0.9908	        -2295.14	         2200.41	        -94.7292
     310	 2.01172	0.993069	         -2294.8	          2200.1	        -94.7022
     311	 2.00987	  1.0008	        -2292.73	         2198.07	        -94.6589
     312	 2.00708	 1.01209	        -2289.65	         2195.02	        -94.6239
     313	 2.00393	 1.02511	         -2286.2	         2191.58	        -94.6148
     314	 2.00071	 1.03889	         -2282.7	         2188.06	        -94.6384
     315	 1.99731	 1.05362	        -2279.02	         2184.34	        -94.6848
     316	 1.99333	 1.07028	        -2274.72	         2179.99	        -94.7248
     317	 1.98847	 1.08968	        -2269.41	         2174.67	        -94.7367
     318	 1.98272	  1.1116	        -2263.11	         2168.39	        -94.7252
     319	 1.97644	 1.13485	        -2256.22	         2161.52	         -94.701
     320	 1.97023	 1.15753	        -2249.38	         2154.72	        -94.6557
     321	   1.965	 1.17689	        -2243.59	         2149.01	        -94.5766
     322	 1.96201	 1.18918	        -2240.25	         2145.74	        -94.5112
     323	 1.96217	 1.19159	        -2240.44	         2145.91	        -94.5317
     324	 1.96534	 1.18463	        -2243.99	         2149.38	        -94.6077
     325	 1.97063	 1.17114	        -2249.83	         2155.16	        -94.6612
     326	 1.97721	 1.15365	        -2257.05	         2162.36	        -94.6818
     327	 1.98461	 1.13369	        -2265.14	         2170.45	        -94.6955
     328	 1.99245	 1.11254	        -2273.73	         2179.02	        -94.7036
     329	 2.00044	 1.09128	        -2282.47	         2187.77	        -94.7085
     330	 2.00824	 1.07104	        -2291.05	          2196.3	        -94.7498
     331	 2.01507	 1.05417	        -2298.61	         2203.76	        -94.8437
     332	 2.01963	 1.04459	        -2303.67	         2208.75	        -94.9232
     333	 2.02087	 1.04542	        -2305.02	          2210.1	        -94.9155
     334	 2.01875	 1.05663	        -2302.64	         2207.79	        -94.8441
     335	 2.01409	 1.07561	        -2297.44	         2202.69	        -94.7525
     336	 2.00809	 1.09868	        -2290.75	         2196.13	        -94.6284
     337	 2.00229	 1.12113	        -2284.29	         2189.78	        -94.5063
     338	 1.99808	 1.13855	        -2279.66	         2185.19	        -94.4697
     339	 1.99586	 1.14968	        -2277.29	         2182.76	        -94.5333
     340	 1.99481	  1.1569	        -2276.24	         2181.61	        -94.6308
     341	 1.99369	 1.16386	        -2275.08	         2180.38	        -94.6938
     342	 1.99168	 1.17299	         -2272.9	         2178.19	        -94.7051
     343	 1.98866	 1.18466	        -2269.58	         2174.89	        -94.6946
     344	 1.98489	 1.19808	        -2265.45	         2170.76	        -94.6844
     345	 1.98083	 1.21201	        -2260.96	         2166.32	        -94.6428
     346	 1.97738	  1.2239	        -2257.09	         2162.54	        -94.5449
     347	   1.976	 1.22951	         -2255.5	         2161.04	        -94.4649
     348	 1.97771	 1.22576	        -2257.44	         2162.91	        -94.5327
     349	 1.98164	 1.21517	        -2261.98	         2167.21	        -94.7741
     350	 1.98484	 1.20646	        -2265.75	         2170.71	        -95.0456
     351	 1.98399	 1.20932	        -2264.96	         2169.78	        -95.1813
     352	 1.97747	 1.22829	        -2257.79	         2162.65	          -95.14
     353	 1.96605	 1.26073	        -2245.13	         2150.16	        -94.9734
     354	  1.9524	 1.29854	        -2229.97	         2135.23	        -94.7364
     355	  1.9403	 1.33044	        -2216.48	         2122.01	        -94.4772
     356	 1.93368	 1.34473	        -2209.07	         2114.77	        -94.3049
     357	 1.93502	  1.3339	        -2210.57	         2116.23	        -94.3422
     358	 1.94399	 1.29897	        -2220.57	         2126.04	        -94.5337
     359	 1.95801	 1.24774	        -2236.11	         2141.36	        -94.7437
     360	 1.97385	 1.18974	         -2253.6	         2158.69	        -94.9123
     361	 1.98879	 1.13331	        -2270.03	         2175.02	        -95.0118
     362	 2.00107	 1.08394	        -2283.46	         2188.45	        -95.0107
     363	 2.01038	 1.04303	        -2293.53	         2198.63	        -94.9016
     364	 2.01777	 1.00791	        -2301.48	         2206.71	        -94.7646
     365	  2.0246	0.974876	        -2308.89	         2214.18	         -94.709
     366	 2.03125	0.943101	        -2316.21	         2221.45	        -94.7504
     367	 2.03689	0.915323	        -2322.45	         2227.62	        -94.8334
     368	 2.04013	0.895726	        -2326.06	         2231.17	        -94.8983
     369	 2.03991	0.887458	        -2325.84	         2230.93	        -94.9072
     370	 2.03612	0.890888	        -2321.61	         2226.78	        -94.8279
     371	    2.03	0.902413	        -2314.74	         2220.09	        -94.6472
     372	 2.02399	0.914716	        -2308.02	         2213.52	        -94.4993
     373	 2.01996	0.921947	        -2303.65	         2209.11	        -94.5389
     374	 2.01776	0.924687	        -2301.32	          2206.7	        -94.6213
     375	 2.01644	0.925704	        -2299.87	         2205.26	        -94.6172
     376	 2.01579	0.925405	        -2299.13	         2204.55	        -94.5828
     377	 2.01602	0.923102	        -2299.38	          2204.8	        -94.5795
     378	 2.01702	 0.91911	        -2300.52	         2205.89	        -94.6253
     379	 2.01806	0.915475	        -2301.75	         2207.03	          -94.72
     380	 2.01789	0.915781	        -2301.67	         2206.84	        -94.8256
     381	 2.01529	0.923499	        -2298.85	            2204	        -94.8505
     382	 2.01024	0.938676	         -2293.2	         2198.48	        -94.7172
     383	 2.00464	 0.95556	        -2286.85	         2192.36	        -94.4911
     384	 2.00135	0.965416	        -2283.14	         2188.76	        -94.3783
     385	 2.00186	0.963753	        -2283.78	         2189.32	        -94.4626
     386	 2.00529	0.953293	        -2287.67	         2193.07	        -94.6008
     387	  2.0099	0.939348	        -2292.77	          2198.1	        -94.6689
     388	 2.01453	 0.92527	        -2297.86	         2203.17	        -94.6943
     389	 2.01854	0.912907	        -2302.33	         2207.56	        -94.7643
     390	 2.02099	0.905184	         -2305.1	         2210.23	        -94.8662
     391	  2.0208	0.905482	         -2304.9	         2210.02	        -94.8749
     392	 2.01812	0.913526	        -2301.83	          2207.1	        -94.7351
     393	 2.01483	0.923771	        -2298.07	          2203.5	        -94.5675
     394	 2.01304	0.929868	        -2296.09	         2201.54	         -94.557
     395	 2.01295	 0.93111	        -2296.16	         2201.45	        -94.7176
     396	 2.01277	0.932942	        -2296.12	         2201.24	        -94.8763
     397	 2.01059	0.940941	        -2293.75	         2198.86	        -94.8875
     398	 2.00632	0.955354	        -2288.94	          2194.2	        -94.7399
     399	  2.0019	 0.97051	         -2283.9	         2189.36	        -94.5395
     400	 1.99984	0.978973	        -2281.57	         2187.11	        -94.4663
     401	 2.00105	0.978108	        -2283.02	         2188.43	        -94.5934
     402	 2.00401	0.972643	        -2286.45	         2191.66	        -94.7896
     403	  2.0062	0.970171	        -2288.95	         2194.06	         -94.894
     404	 2.00615	0.975139	        -2288.85	            2194	        -94.8505
     405	 2.00421	0.986535	        -2286.62	         2191.88	        -94.7332
     406	 2.00167	 1.00047	         -2283.8	         2189.11	        -94.6908
     407	 1.99908	 1.01529	        -2281.05	         2186.28	        -94.7726
     408	 1.99565	 1.03329	         -2277.4	         2182.53	         -94.872
     409	 1.99036	  1.0573	        -2271.64	         2176.75	        -94.8941
     410	 1.98315	 1.08724	        -2263.67	         2168.85	        -94.8162
     411	 1.97524	  1.1192	        -2254.87	         2160.21	        -94.6604
     412	 1.96873	 1.14668	        -2247.64	         2153.09	        -94.5437
     413	 1.96516	 1.16481	        -2243.74	         2149.19	        -94.5542
     414	 1.96459	 1.17333	        -2243.17	         2148.56	        -94.6154
     415	  1.9663	 1.17434	        -2245.08	         2150.43	         -94.652
     416	 1.96964	 1.16961	        -2248.77	         2154.09	        -94.6844
     417	 1.97406	 1.16086	        -2253.64	         2158.92	        -94.7242
     418	 1.97897	 1.14994	        -2259.02	         2164.28	        -94.7424
     419	   1.984	 1.13801	        -2264.53	         2169.79	        -94.7421
     420	 1.98892	 1.12581	        -2269.93	         2175.16	        -94.7658
     421	 1.99319	 1.11491	        -2274.65	         2179.84	        -94.8162
     422	 1.99606	 1.10771	         -2277.8	         2182.97	        -94.8298
     423	 1.99729	 1.10511	        -2279.07	         2184.32	        -94.7542
     424	 1.99774	 1.10476	        -2279.44	         2184.81	         -94.629
     425	 1.99881	  1.1026	        -2280.54	         2185.98	        -94.5661
     426	 2.00115	 1.09678	        -2283.16	         2188.54	        -94.6131
     427	 2.00415	 1.08934	        -2286.51	         2191.82	        -94.6941
     428	 2.00665	 1.08371	        -2289.29	         2194.55	        -94.7444
     429	 2.00782	 1.08223	        -2290.61	         2195.84	        -94.7755
     430	  2.0072	 1.08617	        -2289.97	         2195.16	        -94.8135
     431	 2.00449	 1.09627	        -2287.03	         2192.19	        -94.8318
     432	 1.99999	 1.11173	        -2282.02	         2187.28	        -94.7419
     433	  1.9954	 1.12762	        -2276.81	         2182.26	        -94.5595
     434	 1.99313	  1.1365	        -2274.27	         2179.77	        -94.5095
     435	   1.994	 1.13594	        -2275.31	         2180.72	        -94.5935
     436	 1.99706	 1.12898	        -2278.73	         2184.07	        -94.6586
     437	   2.001	 1.11925	        -2283.12	         2188.38	        -94.7464
     438	 2.00433	 1.11113	        -2286.86	         2192.02	        -94.8465
     439	  2.0057	 1.10879	        -2288.36	         2193.51	        -94.8509
     440	 2.00502	 1.11266	         -2287.5	         2192.77	        -94.7281
     441	 2.00375	 1.11852	        -2285.98	         2191.39	        -94.5978
     442	 2.00339	 1.12189	        -2285.61	         2190.99	        -94.6224
     443	 2.00371	 1.12352	        -2286.12	         2191.34	        -94.7848
     444	 2.00292	 1.12886	        -2285.39	         2190.47	        -94.9197
     445	 1.99951	 1.14238	        -2281.67	         2186.75	        -94.9194
     446	 1.99369	 1.16342	        -2275.17	         2180.38	        -94.7845
     447	 1.98738	 1.18626	        -2268.09	         2173.49	        -94.6057
     448	 1.98298	 1.20365	        -2263.21	         2168.67	        -94.5358
     449	  1.9815	 1.21249	         -2261.7	         2167.05	        -94.6521
     450	 1.98165	  1.2165	        -2262.07	         2167.21	        -94.8544
     451	 1.98099	 1.22288	        -2261.49	          2166.5	         -94.995
     452	 1.97766	 1.23692	        -2257.89	         2162.85	        -95.0355
     453	 1.97108	 1.26004	        -2250.65	         2155.65	        -94.9977
     454	 1.96199	 1.28996	        -2240.58	         2145.72	        -94.8561
     455	  1.9527	 1.31998	        -2230.14	         2135.56	        -94.5811
     456	 1.94705	 1.33881	        -2223.66	         2129.38	        -94.2879
     457	 1.94864	 1.33561	        -2225.37	         2131.12	        -94.2453
     458	 1.95786	 1.30931	         -2235.7	         2141.21	        -94.4938
     459	 1.97149	 1.26987	        -2250.88	         2156.11	         -94.771
     460	  1.9855	 1.22941	        -2266.35	         2171.42	        -94.9271
     461	 1.99718	   1.196	        -2279.17	         2184.19	        -94.9771
     462	 2.00533	  1.1734	        -2288.08	         2193.11	        -94.9731
     463	 2.00969	 1.16262	        -2292.83	         2197.88	        -94.9515
     464	 2.01046	 1.16324	        -2293.64	         2198.72	        -94.9181
     465	 2.00821	 1.17369	        -2291.11	         2196.26	        -94.8488
     466	 2.00407	 1.19064	        -2286.47	         2191.73	        -94.7349
     467	 1.99968	 1.20913	        -2281.57	         2186.93	        -94.6351
     468	 1.99639	 1.22491	        -2277.98	         2183.33	        -94.6445
     469	 1.99416	  1.2378	        -2275.67	         2180.89	        -94.7779
     470	 1.99148	 1.25206	        -2272.89	         2177.96	        -94.9248
     471	  1.9867	 1.27236	        -2267.69	         2172.74	        -94.9513
     472	 1.97967	 1.29892	        -2259.86	         2165.05	        -94.8149
     473	 1.97217	 1.32619	        -2251.49	         2156.85	        -94.6351
     474	 1.96643	 1.34718	        -2245.15	         2150.57	        -94.5832
     475	 1.96327	 1.35936	        -2241.75	         2147.12	        -94.6274
     476	 1.96228	 1.36393	         -2240.7	         2146.04	        -94.6631
     477	 1.96286	 1.36243	        -2241.37	         2146.68	        -94.6926
     478	 1.96453	 1.35626	        -2243.22	         2148.49	        -94.7315
     479	 1.96677	   1.347	        -2245.71	         2150.95	        -94.7629
     480	 1.96921	 1.33591	         -2248.4	         2153.62	        -94.7811
     481	  1.9716	 1.32384	        -2251.02	         2156.22	        -94.7995
     482	 1.97367	 1.31162	         -2253.3	         2158.49	        -94.8119
     483	 1.97523	 1.29988	        -2254.99	          2160.2	        -94.7919
     484	 1.97643	 1.28826	        -2256.25	         2161.51	        -94.7391
     485	 1.97775	  1.2753	        -2257.63	         2162.96	        -94.6742
     486	 1.97988	  1.2592	        -2259.89	         2165.28	        -94.6174
     487	  1.9833	 1.23859	        -2263.62	         2169.02	        -94.5965
     488	 1.98803	 1.21358	        -2268.83	          2174.2	        -94.6309
     489	  1.9934	 1.18632	        -2274.77	         2180.06	        -94.7023
     490	 1.99828	 1.16025	        -2280.16	          2185.4	        -94.7654
     491	 2.00169	 1.13832	        -2283.91	         2189.14	        -94.7776
     492	  2.0034	 1.12141	        -2285.71	            2191	        -94.7171
     493	 2.00411	 1.10748	        -2286.38	         2191.78	        -94.5998
     494	 2.00534	 1.09229	         -2287.6	         2193.12	         -94.484
     495	 2.00851	 1.07167	        -2291.04	         2196.59	        -94.4505
     496	 2.01405	 1.04455	        -2297.18	         2202.64	        -94.5405
     497	 2.02085	 1.01434	        -2304.78	         2210.09	        -94.6968
     498	 2.02702	 0.98691	        -2311.64	         2216.82	        -94.8171
     499	 2.03099	 0.96696	        -2316.03	         2221.17	        -94.8576
     500	 2.03219	0.956307	        -2317.33	         2222.48	        -94.8512
     501	 2.03067	0.954831	        -2315.67	         2220.82	        -94.8478
     502	 2.02658	0.962089	         -2311.2	         2216.35	        -94.8463
     503	  2.0202	0.977273	        -2304.18	         2209.38	        -94.8017
     504	 2.01237	0.997806	        -2295.51	         2200.81	        -94.7044
     505	 2.00458	 1.01911	        -2286.88	         2192.29	        -94.5885
     506	 1.99854	 1.03599	        -2280.18	         2185.68	        -94.4956
     507	 1.99549	 1.04458	        -2276.84	         2182.35	        -94.4929
     508	 1.99541	  1.0448	        -2276.84	         2182.26	        -94.5756
     509	 1.99718	 1.04003	        -2278.84	          2184.2	        -94.6473
     510	 1.99951	 1.03395	        -2281.45	         2186.75	        -94.6976
     511	 2.00135	  1.0296	        -2283.52	         2188.76	        -94.7574
     512	 2.00171	 1.02988	        -2283.94	         2189.16	         -94.789
     513	 2.00011	 1.03622	        -2282.15	          2187.4	        -94.7491
     514	 1.99698	 1.04727	        -2278.65	         2183.98	        -94.6732
     515	 1.99323	 1.06018	        -2274.51	         2179.88	        -94.6343
     516	 1.98944	 1.07322	        -2270.37	         2175.73	        -94.6424
     517	 1.98566	 1.08622	        -2266.25	          2171.6	         -94.644
     518	 1.98195	 1.09897	        -2262.17	         2167.55	        -94.6226
     519	 1.97855	 1.11053	        -2258.45	         2163.83	        -94.6224
     520	 1.97551	 1.12055	        -2255.16	          2160.5	        -94.6618
     521	 1.97251	 1.12981	        -2251.91	         2157.22	        -94.6885
     522	 1.96949	 1.13844	        -2248.56	         2153.92	         -94.637
     523	  1.9673	 1.14393	        -2246.05	         2151.53	        -94.5214
     524	  1.9674	 1.14192	        -2246.09	         2151.63	        -94.4617
     525	 1.97043	 1.13049	        -2249.51	         2154.95	        -94.5571
     526	  1.9752	  1.1134	        -2254.91	         2160.16	        -94.7491
     527	 1.97928	   1.098	        -2259.53	         2164.63	        -94.9021
     528	 1.98074	 1.09024	        -2261.15	         2166.22	        -94.9342
     529	 1.97915	 1.09141	        -2259.34	         2164.48	        -94.8549
     530	  1.9756	 1.09842	        -2255.33	          2160.6	        -94.7364
     531	 1.97181	 1.10629	        -2251.06	         2156.45	        -94.6087
     532	  1.9697	 1.10959	        -2248.61	         2154.15	        -94.4579
     533	 1.97121	 1.10263	        -2250.16	          2155.8	        -94.3512
     534	 1.97747	 1.08207	        -2257.03	         2162.65	        -94.3847
     535	 1.98778	 1.05008	        -2268.45	         2173.92	        -94.5279
     536	 1.99998	 1.01328	        -2281.94	         2187.26	        -94.6754
     537	 2.01165	0.978934	        -2294.81	         2200.02	        -94.7854
     538	 2.02082	0.953006	        -2304.92	         2210.05	        -94.8735
     539	 2.02596	0.940118	        -2310.61	         2215.67	        -94.9431
     540	 2.02602	0.943393	        -2310.71	         2215.74	        -94.9691
     541	 2.02079	0.963431	        -2304.94	         2210.02	        -94.9183
     542	 2.01126	0.997138	        -2294.37	          2199.6	        -94.7722
     543	 1.99976	 1.03737	         -2281.6	         2187.03	        -94.5732
     544	 1.98923	 1.07506	        -2269.94	          2175.5	        -94.4396
     545	 1.98177	 1.10359	        -2261.77	         2167.34	        -94.4223
     546	 1.97801	 1.12097	         -2257.7	         2163.23	        -94.4645
     547	 1.97761	 1.12806	        -2257.31	          2162.8	        -94.5147
     548	 1.97995	  1.1266	        -2259.92	         2165.36	        -94.5678
     549	 1.98424	 1.11889	         -2264.7	         2170.04	        -94.6563
     550	 1.98926	 1.10854	        -2270.31	         2175.54	        -94.7711
     551	 1.99349	 1.10016	        -2275.05	         2180.16	        -94.8866
     552	 1.99544	 1.09816	        -2277.25	         2182.29	        -94.9518
     553	 1.99449	 1.10463	        -2276.14	         2181.25	        -94.8856
     554	 1.99145	 1.11702	        -2272.73	         2177.93	        -94.7902
     555	 1.98748	 1.13171	        -2268.39	         2173.59	        -94.8005
     556	 1.98279	 1.14813	        -2263.27	         2168.46	         -94.804
     557	 1.97762	 1.16554	        -2257.52	         2162.82	        -94.7032
     558	 1.97339	 1.17973	        -2252.72	         2158.18	        -94.5423
     559	 1.97206	 1.18468	         -2251.2	         2156.73	        -94.4668
     560	 1.97444	 1.17793	         -2253.9	         2159.33	        -94.5662
     561	 1.97929	 1.16333	        -2259.33	         2164.63	         -94.697
     562	 1.98477	  1.1464	        -2265.37	         2170.63	        -94.7343
     563	 1.99002	 1.12973	        -2271.08	         2176.37	        -94.7102
     564	 1.99499	 1.11352	        -2276.49	          2181.8	        -94.6902
     565	 1.99978	 1.09768	        -2281.73	         2187.05	        -94.6875
     566	 2.00441	 1.08251	        -2286.79	         2192.11	        -94.6791
     567	 2.00893	 1.06811	        -2291.71	         2197.04	        -94.6721
     568	 2.01327	 1.05477	        -2296.51	          2201.8	        -94.7084
     569	  2.0169	 1.04423	        -2300.55	         2205.77	        -94.7842
     570	 2.01885	 1.03942	        -2302.73	         2207.89	        -94.8403
     571	 2.01841	 1.04237	        -2302.25	         2207.41	        -94.8367
     572	 2.01569	 1.05271	        -2299.22	         2204.44	        -94.7812
     573	 2.01149	 1.06786	        -2294.56	         2199.85	        -94.7128
     574	 2.00685	 1.08455	        -2289.45	         2194.77	        -94.6759
     575	 2.00248	 1.10051	        -2284.67	         2189.99	        -94.6745
     576	 1.99868	 1.11464	        -2280.51	         2185.84	         -94.664
     577	 1.99585	 1.12568	        -2277.35	         2182.74	         -94.606
     578	 1.99483	   1.131	        -2276.15	         2181.63	        -94.5182
     579	  1.9967	 1.12737	        -2278.14	         2183.67	        -94.4712
     580	 2.00185	  1.1136	        -2283.84	          2189.3	        -94.5402
     581	 2.00912	 1.09316	        -2291.98	         2197.25	        -94.7302
     582	 2.01585	   1.074	        -2299.55	         2204.62	        -94.9353
     583	 2.01924	 1.06453	        -2303.35	         2208.32	        -95.0315
     584	  2.0179	 1.06883	        -2301.83	         2206.86	        -94.9696
     585	 2.01262	 1.08455	        -2295.87	         2201.08	        -94.7842
     586	 2.00584	 1.10437	        -2288.26	         2193.67	        -94.5905
     587	 2.00021	 1.12036	        -2282.01	         2187.51	        -94.5015
     588	 1.99719	 1.12817	        -2278.72	         2184.21	        -94.5072
     589	 1.99707	 1.12709	         -2278.6	         2184.08	        -94.5239
     590	 1.99977	 1.11742	        -2281.54	         2187.04	        -94.5067
     591	 2.00538	 1.09901	        -2287.67	         2193.17	        -94.5086
     592	 2.01353	 1.07302	        -2296.67	         2202.08	        -94.5882
     593	 2.02292	 1.04362	        -2307.06	         2212.35	        -94.7078
     594	 2.03164	 1.01668	         -2316.7	         2221.88	        -94.8246
     595	 2.03781	 0.99785	        -2323.55	         2228.63	        -94.9219
     596	 2.04003	0.991454	        -2326.03	         2231.06	        -94.9689
     597	 2.03773	0.999216	        -2323.48	         2228.54	        -94.9404
     598	 2.03148	  1.0194	        -2316.55	          2221.7	        -94.8499
     599	 2.02276	 1.04739	        -2306.91	         2212.17	        -94.7384
     600	 2.01348	 1.07741	        -2296.65	         2202.03	        -94.6239
     601	  2.0056	 1.10348	        -2287.92	         2193.41	        -94.5119
     602	  2.0008	 1.12035	        -2282.63	         2188.16	         -94.473
     603	 1.99962	 1.12614	        -2281.44	         2186.87	        -94.5721
     604	 2.00086	 1.12437	        -2282.97	         2188.22	         -94.747
     605	 2.00228	 1.12167	        -2284.66	         2189.77	        -94.8839
     606	 2.00199	 1.12358	         -2284.4	         2189.46	        -94.9349
     607	 1.99925	 1.13232	        -2281.37	         2186.46	        -94.9143
     608	  1.9943	 1.14709	        -2275.92	         2181.06	        -94.8609
     609	 1.98797	 1.16544	        -2268.94	         2174.13	        -94.8129
     610	 1.98112	 1.18468	         -2261.4	         2166.64	        -94.7622
     611	 1.97478	 1.20179	        -2254.37	          2159.7	        -94.6697
     612	 1.97034	 1.21256	        -2249.41	         2154.85	        -94.5613
     613	 1.96926	 1.21271	        -2248.19	         2153.67	        -94.5199
     614	 1.97204	 1.20086	        -2251.29	         2156.71	        -94.5811
     615	 1.97782	 1.17988	        -2257.75	         2163.03	        -94.7129
     616	 1.98471	 1.15568	        -2265.41	         2170.56	         -94.849
     617	  1.9907	 1.13448	        -2272.03	         2177.11	        -94.9197
     618	 1.99462	  1.1201	        -2276.29	          2181.4	        -94.8928
     619	 1.99658	 1.11257	        -2278.33	         2183.54	          -94.79
     620	  1.9976	 1.10903	        -2279.37	         2184.66	        -94.7103
     621	 1.99841	 1.10741	         -2280.3	         2185.55	        -94.7507
     622	 1.99839	  1.1096	        -2280.39	         2185.53	        -94.8643
     623	 1.99605	 1.11989	        -2277.93	         2182.96	        -94.9657
     624	 1.99003	 1.14187	        -2271.42	         2176.38	        -95.0393
     625	 1.97963	 1.17716	        -2260.06	         2165.01	        -95.0581
     626	 1.96531	 1.22408	        -2244.28	         2149.35	        -94.9337
     627	 1.94956	 1.27495	        -2226.78	         2132.13	        -94.6529
     628	 1.93661	 1.31674	        -2212.38	         2117.96	        -94.4178
     629	 1.93002	 1.33852	        -2205.12	         2110.76	        -94.3668
     630	 1.93104	 1.33666	        -2206.28	         2111.87	        -94.4046
     631	 1.93916	 1.31261	        -2215.26	         2120.76	        -94.5065
     632	 1.95258	  1.2717	        -2230.14	         2135.43	        -94.7101
     633	  1.9681	 1.22356	        -2247.35	          2152.4	        -94.9451
     634	 1.98215	 1.17906	        -2262.86	         2167.76	        -95.0942
     635	 1.99228	 1.14566	        -2273.95	         2178.84	        -95.1159
     636	 1.99792	 1.12527	        -2280.02	         2185.01	        -95.0093
     637	 2.00057	 1.11395	        -2282.69	         2187.91	        -94.7754
     638	 2.00325	   1.103	        -2285.42	         2190.84	        -94.5878
     639	 2.00808	 1.08598	         -2290.8	         2196.12	        -94.6845
     640	 2.01402	 1.06629	        -2297.49	         2202.61	        -94.8736
     641	 2.01863	 1.05134	        -2302.59	         2207.66	        -94.9274
     642	  2.0206	 1.04467	        -2304.74	          2209.8	        -94.9341
     643	 2.01934	 1.04764	         -2303.4	         2208.43	        -94.9727
     644	 2.01433	 1.06173	        -2297.92	         2202.95	        -94.9726
     645	 2.00574	 1.08622	         -2288.4	         2193.55	        -94.8488
     646	 1.99541	 1.11543	        -2276.87	         2182.26	        -94.6019
     647	 1.98665	 1.13928	        -2267.05	         2172.68	        -94.3727
     648	 1.98237	 1.14877	        -2262.34	         2168.01	        -94.3294
     649	 1.98326	 1.14195	        -2263.41	         2168.97	        -94.4411
     650	 1.98792	 1.12311	        -2268.63	         2174.08	        -94.5585
     651	 1.99461	 1.09766	        -2276.01	         2181.38	        -94.6219
     652	 2.00205	 1.06952	        -2284.19	         2189.52	        -94.6639
     653	 2.00929	 1.04181	        -2292.17	         2197.44	        -94.7302
     654	 2.01519	 1.01816	        -2298.71	         2203.89	        -94.8245
     655	 2.01843	 1.00271	        -2302.33	         2207.43	        -94.8953
     656	 2.01817	0.998123	        -2302.03	         2207.15	        -94.8789
     657	 2.01479	 1.00337	        -2298.22	         2203.46	        -94.7568
     658	 2.01005	 1.01322	        -2292.86	         2198.28	        -94.5853
     659	 2.00629	 1.02063	        -2288.63	         2194.16	        -94.4717
     660	  2.0051	  1.0207	        -2287.32	         2192.86	        -94.4683
     661	 2.00663	 1.01288	        -2289.07	         2194.54	        -94.5358
     662	 2.00995	0.999807	        -2292.79	         2198.16	        -94.6317
     663	 2.01359	0.985607	        -2296.86	         2202.15	        -94.7177
     664	 2.01624	0.974166	        -2299.79	         2205.05	        -94.7494
     665	 2.01725	0.967379	        -2300.87	         2206.14	        -94.7226
     666	 2.01673	0.964808	        -2300.25	         2205.58	         -94.669
     667	  2.0153	0.964647	        -2298.63	         2204.02	        -94.6087
     668	 2.01377	0.964507	        -2296.88	         2202.34	        -94.5407
     669	 2.01308	0.961615	        -2296.07	         2201.59	        -94.4762
     670	 2.01409	0.953457	        -2297.15	         2202.69	        -94.4548
     671	 2.01709	0.939229	        -2300.47	         2205.97	        -94.4956
     672	 2.02165	0.920434	        -2305.51	         2210.96	        -94.5482
     673	 2.02709	0.899271	        -2311.49	         2216.91	        -94.5795
     674	 2.03284	0.877522	        -2317.81	         2223.19	        -94.6247
     675	 2.03817	0.857386	         -2323.7	         2229.03	        -94.6717
     676	 2.04249	0.840915	         -2328.4	         2233.74	        -94.6504
     677	 2.04596	0.827752	        -2332.09	         2237.54	        -94.5531
     678	 2.04961	0.814975	           -2336	         2241.53	        -94.4677
     679	 2.05428	0.800204	        -2341.13	         2246.64	        -94.4926
     680	 2.05952	0.784946	        -2346.99	         2252.37	         -94.619
     681	 2.06369	0.774275	        -2351.68	         2256.93	        -94.7465
     682	  2.0651	0.773335	        -2353.27	         2258.47	        -94.8063
     683	 2.06286	0.784686	        -2350.83	         2256.02	        -94.8047
     684	 2.05699	0.808223	        -2344.38	          2249.6	        -94.7737
     685	 2.04806	0.842167	        -2334.55	         2239.83	        -94.7222
     686	 2.03703	0.883487	        -2322.42	         2227.78	        -94.6422
     687	 2.02528	0.927913	        -2309.48	         2214.93	        -94.5512
     688	 2.01429	0.970774	         -2297.4	         2202.91	        -94.4864
     689	  2.0052	 1.00842	        -2287.44	         2192.97	         -94.464
     690	 1.99854	 1.03898	        -2280.18	         2185.69	        -94.4889
     691	 1.99418	 1.06256	        -2275.47	         2180.92	        -94.5445
     692	  1.9916	 1.08052	        -2272.68	         2178.09	        -94.5833
     693	 1.99035	 1.09397	        -2271.32	         2176.73	        -94.5961
     694	 1.99021	 1.10335	        -2271.19	         2176.58	        -94.6187
     695	 1.99087	 1.10944	        -2271.95	          2177.3	        -94.6497
     696	 1.99196	  1.1133	        -2273.15	         2178.49	        -94.6583
     697	 1.99333	 1.11528	        -2274.64	         2179.99	         -94.647
     698	 1.99506	 1.11512	        -2276.54	         2181.88	         -94.653
     699	 1.99702	 1.11322	        -2278.73	         2184.03	        -94.7043
     700	  1.9986	 1.11151	        -2280.52	         2185.75	        -94.7729
     701	 1.99907	  1.1123	        -2281.06	         2186.26	        -94.7915
     702	 1.99836	 1.11599	        -2280.22	         2185.49	        -94.7295
     703	 1.99734	 1.12008	        -2279.01	         2184.38	        -94.6397
     704	 1.99721	 1.12111	        -2278.81	         2184.23	        -94.5854
     705	 1.99875	  1.1169	        -2280.47	         2185.92	        -94.5499
     706	 2.00239	 1.10636	        -2284.43	          2189.9	        -94.5311
     707	 2.00815	 1.08945	        -2290.76	          2196.2	        -94.5616
     708	 2.01545	  1.0681	         -2298.8	         2204.17	        -94.6302
     709	 2.02316	  1.0458	        -2307.31	         2212.61	         -94.708
     710	 2.03004	 1.02648	         -2314.9	         2220.13	        -94.7721
     711	 2.03505	 1.01341	        -2320.41	         2225.61	        -94.8058
     712	 2.03758	 1.00857	        -2323.21	         2228.38	        -94.8285
     713	 2.03726	 1.01316	         -2322.9	         2228.02	        -94.8781
     714	 2.03355	 1.02868	        -2318.92	         2223.97	        -94.9469
     715	 2.02604	  1.0564	        -2310.71	         2215.75	        -94.9541
     716	 2.01534	  1.0945	        -2298.85	         2204.05	        -94.7953
     717	 2.00419	 1.13494	        -2286.37	         2191.87	        -94.5019
     718	 1.99647	 1.16587	        -2277.82	         2183.42	         -94.398
     719	 1.99351	 1.18296	        -2274.81	         2180.19	        -94.6258
     720	 1.99286	 1.19375	        -2274.32	         2179.48	        -94.8434
     721	 1.99161	 1.20673	        -2272.98	         2178.11	        -94.8749
     722	 1.98886	 1.22415	         -2269.9	         2175.11	        -94.7904
     723	 1.98539	 1.24361	        -2265.99	          2171.3	        -94.6884
     724	 1.98232	 1.26164	        -2262.58	         2167.95	        -94.6301
     725	 1.98041	 1.27602	        -2260.47	         2165.86	        -94.6083
     726	 1.97996	 1.28584	        -2259.96	         2165.37	         -94.583
     727	 1.98127	 1.29023	        -2261.35	          2166.8	        -94.5534
     728	 1.98452	 1.28859	        -2264.95	         2170.36	        -94.5897
     729	 1.98901	  1.2829	        -2270.02	         2175.26	        -94.7565
     730	 1.99253	 1.27961	        -2274.09	         2179.12	         -94.977
     731	 1.99235	 1.28673	        -2274.03	         2178.91	        -95.1178
     732	 1.98679	 1.30887	        -2267.96	         2172.83	        -95.1245
     733	 1.97611	 1.34488	        -2256.17	         2161.16	        -95.0074
     734	 1.96241	 1.38818	        -2240.99	         2146.18	        -94.8106
     735	 1.94897	 1.42876	        -2226.06	         2131.48	        -94.5853
     736	  1.9394	 1.45571	        -2215.42	         2121.02	         -94.398
     737	 1.93652	 1.46046	        -2212.23	         2117.87	        -94.3588
     738	 1.94102	 1.44091	        -2217.27	         2122.78	        -94.4884
     739	 1.95129	   1.402	        -2228.67	         2134.01	        -94.6587
     740	 1.96486	 1.35134	        -2243.63	         2148.86	        -94.7697
     741	 1.97969	 1.29529	        -2259.91	         2165.07	        -94.8356
     742	 1.99424	 1.23878	        -2275.88	         2180.98	        -94.8983
     743	 2.00713	 1.18639	        -2290.04	         2195.08	        -94.9558
     744	 2.01719	  1.1421	        -2301.05	         2206.08	        -94.9737
     745	 2.02385	 1.10801	        -2308.29	         2213.36	        -94.9263
     746	 2.02745	 1.08345	        -2312.13	          2217.3	        -94.8333
     747	 2.02897	 1.06574	        -2313.71	         2218.96	        -94.7473
     748	 2.02941	 1.05207	        -2314.14	         2219.45	        -94.6966
     749	 2.02945	  1.0406	        -2314.15	         2219.48	        -94.6647
     750	 2.02951	 1.03012	        -2314.18	         2219.55	        -94.6307
     751	 2.03001	 1.01946	         -2314.7	         2220.09	        -94.6054
     752	 2.03121	 1.00789	        -2316.02	         2221.41	        -94.6113
     753	   2.033	0.995792	        -2318.01	         2223.36	        -94.6493
     754	 2.03487	 0.98475	        -2320.12	         2225.41	        -94.7028
     755	 2.03612	0.976887	        -2321.54	         2226.78	        -94.7588
     756	 2.03601	0.974309	        -2321.47	         2226.66	        -94.8068
     757	 2.03399	0.978592	        -2319.27	         2224.45	        -94.8274
     758	 2.02992	0.990005	         -2314.8	            2220	        -94.8001
     759	 2.02437	 1.00678	        -2308.66	         2213.94	         -94.724
     760	 2.01858	 1.02514	        -2302.22	          2207.6	        -94.6259
     761	 2.01399	 1.04062	        -2297.16	         2202.58	        -94.5782
     762	 2.01131	 1.05085	         -2294.3	         2199.66	        -94.6421
     763	  2.0099	 1.05766	        -2292.86	         2198.11	        -94.7566
     764	 2.00834	 1.06508	        -2291.23	          2196.4	        -94.8263
     765	 2.00564	 1.07585	        -2288.29	         2193.45	        -94.8323
     766	 2.00163	 1.09033	        -2283.85	         2189.06	         -94.789
     767	 1.99687	 1.10679	        -2278.55	         2183.85	        -94.6945
     768	 1.99258	 1.12157	        -2273.76	         2179.17	        -94.5837
     769	 1.99009	 1.13068	           -2271	         2176.44	        -94.5528
     770	 1.98967	 1.13314	        -2270.62	         2175.98	        -94.6406
     771	 1.99022	  1.1322	        -2271.35	         2176.58	        -94.7604
     772	 1.99022	 1.13236	        -2271.39	         2176.59	         -94.804
     773	 1.98905	 1.13546	        -2270.05	         2175.31	        -94.7443
     774	 1.98735	 1.13959	        -2268.09	         2173.45	        -94.6441
     775	 1.98629	 1.14128	        -2266.89	         2172.29	        -94.5956
     776	 1.98651	 1.13875	        -2267.16	         2172.53	         -94.625
     777	 1.98773	 1.13291	        -2268.55	         2173.86	        -94.6846
     778	 1.98926	 1.12583	        -2270.26	         2175.54	        -94.7279
     779	 1.99057	   1.119	        -2271.72	         2176.97	        -94.7461
     780	 1.99146	 1.11291	        -2272.71	         2177.95	        -94.7621
     781	 1.99182	  1.1078	        -2273.12	         2178.34	        -94.7821
     782	 1.99167	 1.10373	        -2272.92	         2178.18	        -94.7423
     783	 1.99177	 1.09872	        -2272.89	         2178.29	        -94.6067
     784	 1.99371	 1.08823	        -2274.92	         2180.41	         -94.509
     785	 1.99837	 1.06982	        -2280.09	          2185.5	        -94.5875
     786	 2.00451	 1.04757	        -2286.97	         2192.22	         -94.757
     787	 2.00963	 1.02929	         -2292.7	         2197.82	        -94.8834
     788	  2.0116	 1.02144	         -2294.9	         2199.96	        -94.9325
     789	 2.00933	 1.02728	         -2292.4	         2197.48	        -94.9202
     790	 2.00274	 1.04707	        -2285.16	         2190.28	        -94.8762
     791	 1.99239	 1.07906	        -2273.79	         2178.96	         -94.823
     792	 1.97919	 1.12034	        -2259.28	         2164.52	        -94.7572
     793	 1.96436	 1.16689	        -2242.98	         2148.31	        -94.6665
     794	 1.94954	 1.21344	        -2226.66	          2132.1	        -94.5575
     795	 1.93662	 1.25387	        -2212.43	         2117.98	         -94.449
     796	 1.92751	 1.28216	        -2202.37	         2108.02	         -94.354
     797	 1.92379	  1.2933	        -2198.26	         2103.95	        -94.3078
     798	 1.92617	 1.28488	        -2200.92	         2106.55	        -94.3684
     799	  1.9339	 1.25898	        -2209.52	         2115.01	        -94.5122
     800	 1.94513	 1.22122	        -2221.92	         2127.28	        -94.6321
     801	 1.95812	 1.17697	        -2236.15	         2141.48	        -94.6697
     802	 1.97198	 1.12905	        -2251.31	         2156.65	        -94.6611
     803	 1.98639	 1.07882	        -2267.07	          2172.4	        -94.6663
     804	 2.00087	 1.02809	        -2282.94	         2188.24	        -94.6988
     805	 2.01464	0.979639	        -2298.03	          2203.3	        -94.7365
     806	 2.02681	0.936479	        -2311.36	          2216.6	        -94.7629
     807	 2.03663	0.901098	        -2322.12	         2227.34	        -94.7792
     808	 2.04355	0.875352	         -2329.7	         2234.91	        -94.7915
     809	  2.0472	 0.86051	        -2333.69	         2238.89	        -94.7912
     810	  2.0475	0.856865	        -2333.99	         2239.23	        -94.7583
     811	 2.04495	0.863058	        -2331.12	         2236.43	        -94.6893
     812	 2.04054	0.876057	        -2326.23	         2231.61	        -94.6172
     813	 2.03539	0.892436	        -2320.57	         2225.98	        -94.5919
     814	 2.03015	0.910153	        -2314.87	         2220.25	         -94.622
     815	 2.02487	0.928917	        -2309.14	         2214.48	        -94.6636
     816	 2.01945	0.948839	        -2303.25	         2208.55	        -94.6911
     817	 2.01399	 0.96945	        -2297.27	         2202.59	         -94.687
     818	 2.00907	0.989023	        -2291.82	          2197.2	        -94.6231
     819	 2.00573	 1.00425	        -2288.14	         2193.55	        -94.5951
     820	 2.00442	  1.0136	        -2286.78	         2192.11	        -94.6698
     821	 2.00436	 1.01943	         -2286.8	         2192.05	         -94.746
     822	 2.00449	 1.02484	        -2286.98	         2192.19	         -94.789
     823	 2.00404	 1.03195	        -2286.52	          2191.7	         -94.817
     824	 2.00255	 1.04222	        -2284.91	         2190.08	        -94.8317
     825	 1.99983	 1.05627	         -2281.9	          2187.1	         -94.803
     826	 1.99628	   1.073	        -2277.94	         2183.21	        -94.7305
     827	 1.99278	 1.08972	        -2274.07	         2179.38	        -94.6833
     828	 1.98996	 1.10447	           -2271	         2176.31	        -94.6986
     829	 1.98777	 1.11739	        -2268.66	         2173.91	         -94.752
     830	 1.98571	 1.12984	        -2266.45	         2171.65	        -94.7962
     831	 1.98347	  1.1427	        -2263.99	         2169.21	        -94.7812
     832	 1.98147	 1.15468	        -2261.75	         2167.02	        -94.7253
     833	 1.98043	 1.16342	        -2260.63	         2165.88	        -94.7502
     834	 1.98015	  1.1694	        -2260.41	         2165.57	        -94.8388
     835	 1.97978	 1.17527	           -2260	         2165.18	        -94.8234
     836	 1.97945	 1.18055	        -2259.53	         2164.82	        -94.7171
     837	 1.98017	 1.18196	        -2260.28	          2165.6	          -94.68
     838	 1.98223	 1.17849	        -2262.61	         2167.85	        -94.7623
     839	 1.98458	 1.17325	        -2265.29	         2170.42	        -94.8685
     840	 1.98587	 1.17029	        -2266.73	         2171.83	         -94.906
     841	 1.98551	 1.17119	         -2266.3	         2171.44	        -94.8623
     842	   1.984	 1.17448	        -2264.56	         2169.79	        -94.7741
     843	 1.98245	 1.17692	        -2262.77	         2168.09	        -94.6793
     844	 1.98199	 1.17516	        -2262.22	         2167.59	        -94.6353
     845	 1.98306	 1.16788	        -2263.46	         2168.76	        -94.7018
     846	 1.98485	 1.15761	        -2265.54	         2170.71	         -94.825
     847	 1.98605	 1.14854	        -2266.87	         2172.02	        -94.8484
     848	 1.98659	 1.14128	        -2267.33	         2172.62	        -94.7077
     849	 1.98816	  1.1311	        -2268.91	         2174.33	        -94.5777
     850	 1.99207	 1.11412	        -2273.27	         2178.61	        -94.6645
     851	 1.99718	 1.09408	        -2279.09	          2184.2	         -94.884
     852	 2.00073	 1.07951	        -2283.11	         2188.09	        -95.0218
     853	 2.00083	 1.07609	        -2283.18	         2188.19	          -94.99
     854	 1.99772	  1.0831	        -2279.63	         2184.79	        -94.8438
     855	 1.99315	 1.09536	        -2274.51	          2179.8	         -94.713
     856	  1.9888	  1.1079	        -2269.71	         2175.03	         -94.678
     857	 1.98521	 1.11903	        -2265.81	         2171.11	        -94.6983
     858	 1.98222	  1.1292	        -2262.54	         2167.84	        -94.7067
     859	 1.97961	 1.13879	        -2259.69	         2164.98	        -94.7057
     860	 1.97725	 1.14791	        -2257.14	          2162.4	         -94.736
     861	 1.97472	 1.15752	        -2254.43	         2159.64	        -94.7907
     862	 1.97148	 1.16908	         -2250.9	         2156.09	        -94.8076
     863	 1.96748	 1.18249	        -2246.48	         2151.73	        -94.7581
     864	  1.9635	 1.19521	        -2242.06	         2147.37	        -94.6937
     865	 1.96049	 1.20415	        -2238.74	         2144.08	         -94.663
     866	  1.9591	 1.20734	        -2237.19	         2142.55	         -94.637
     867	 1.95982	 1.20331	        -2237.94	         2143.35	        -94.5879
     868	 1.96327	 1.19029	        -2241.67	         2147.12	        -94.5496
     869	 1.96978	 1.16745	         -2248.8	         2154.23	        -94.5709
     870	 1.97884	 1.13648	         -2258.8	         2164.14	        -94.6607
     871	 1.98907	 1.10182	         -2270.1	         2175.33	        -94.7664
     872	 1.99888	 1.06866	        -2280.87	         2186.05	        -94.8139
     873	 2.00721	 1.04034	        -2289.98	         2195.17	        -94.8196
     874	 2.01343	 1.01889	        -2296.83	         2201.97	        -94.8649
     875	 2.01662	  1.0072	        -2300.36	         2205.46	        -94.9039
     876	 2.01612	 1.00745	        -2299.76	         2204.92	        -94.8435
     877	 2.01251	 1.01787	        -2295.66	         2200.97	        -94.6892
     878	 2.00768	 1.03282	        -2290.19	         2195.68	        -94.5028
     879	 2.00401	  1.0452	        -2286.04	         2191.67	        -94.3667
     880	  2.0032	 1.04988	        -2285.15	         2190.79	        -94.3659
     881	 2.00521	 1.04683	        -2287.49	         2192.99	        -94.5097
     882	 2.00822	 1.04144	        -2290.96	         2196.27	        -94.6972
     883	  2.0098	 1.04074	        -2292.82	            2198	        -94.8136
     884	  2.0085	 1.04907	        -2291.38	         2196.58	        -94.8014
     885	 2.00456	  1.0657	        -2286.94	         2192.27	        -94.6706
     886	 1.99975	 1.08537	        -2281.53	         2187.01	        -94.5251
     887	 1.99598	 1.10226	        -2277.39	         2182.88	        -94.5041
     888	 1.99369	  1.1149	        -2274.99	         2180.38	        -94.6156
     889	 1.99175	 1.12647	        -2272.99	         2178.27	        -94.7232
     890	 1.98901	 1.14023	        -2269.98	         2175.27	        -94.7164
     891	 1.98558	 1.15557	        -2266.13	         2171.51	        -94.6116
     892	 1.98276	 1.16841	        -2262.94	         2168.43	        -94.5103
     893	 1.98183	 1.17482	        -2261.92	         2167.42	         -94.498
     894	 1.98306	 1.17407	        -2263.33	         2168.76	        -94.5753
     895	 1.98558	 1.16876	        -2266.19	         2171.51	        -94.6781
     896	 1.98813	 1.16268	        -2269.06	          2174.3	         -94.762
     897	 1.98962	 1.15904	        -2270.77	         2175.93	        -94.8364
     898	 1.98916	 1.16048	        -2270.33	         2175.42	        -94.9018
     899	 1.98617	 1.16878	        -2267.05	         2172.16	        -94.8965
     900	 1.98111	 1.18276	        -2261.39	         2166.63	         -94.761
     901	 1.97598	 1.19665	        -2255.57	         2161.02	        -94.5508
     902	 1.97347	 1.20243	         -2252.7	         2158.27	        -94.4244
     903	 1.97516	 1.19548	        -2254.59	         2160.12	         -94.471
     904	 1.98042	  1.1778	        -2260.49	         2165.87	        -94.6209
     905	 1.98718	 1.15561	        -2268.02	         2173.26	        -94.7567
     906	 1.99337	 1.13509	        -2274.85	         2180.04	        -94.8137
     907	  1.9979	 1.11959	        -2279.78	         2184.98	        -94.7927
     908	 2.00068	 1.10945	        -2282.76	         2188.02	        -94.7362
     909	 2.00218	 1.10336	        -2284.36	         2189.67	        -94.6919
     910	 2.00287	 1.10006	         -2285.1	         2190.42	        -94.6801
     911	 2.00285	 1.09921	        -2285.08	         2190.39	          -94.69
     912	 2.00202	 1.10104	         -2284.2	          2189.5	        -94.7003
     913	 2.00031	  1.1057	        -2282.32	         2187.62	         -94.699
     914	 1.99776	 1.11286	        -2279.52	         2184.83	        -94.6915
     915	 1.99452	 1.12188	        -2275.98	         2181.29	        -94.6912
     916	 1.99072	 1.13224	        -2271.83	         2177.14	        -94.6904
     917	  1.9866	 1.14322	        -2267.28	         2172.63	        -94.6549
     918	  1.9828	 1.15283	        -2263.05	         2168.48	        -94.5751
     919	 1.98045	 1.15771	        -2260.42	          2165.9	        -94.5132
     920	 1.98034	  1.1554	        -2260.33	         2165.78	        -94.5424
     921	 1.98219	 1.14673	        -2262.45	         2167.81	        -94.6376
     922	 1.98493	 1.13499	        -2265.52	          2170.8	        -94.7137
     923	 1.98758	 1.12304	        -2268.44	          2173.7	        -94.7413
     924	 1.98974	 1.11209	        -2270.81	         2176.06	        -94.7498
     925	 1.99131	  1.1025	        -2272.53	         2177.78	        -94.7504
     926	 1.99238	 1.09425	        -2273.67	         2178.95	        -94.7247
     927	 1.99329	 1.08641	        -2274.63	         2179.94	        -94.6857
     928	 1.99452	 1.07773	        -2275.96	         2181.29	        -94.6671
     929	 1.99629	 1.06768	         -2277.9	         2183.23	        -94.6736
     930	  1.9985	 1.05673	        -2280.34	         2185.64	        -94.6977
     931	 2.00074	 1.04608	        -2282.84	         2188.09	        -94.7467
     932	  2.0023	 1.03784	        -2284.62	          2189.8	        -94.8227
     933	 2.00219	 1.03488	        -2284.57	         2189.68	        -94.8953
     934	 1.99958	  1.0396	        -2281.73	         2186.83	        -94.9058
     935	 1.99449	 1.05181	        -2276.08	         2181.26	        -94.8195
     936	 1.98817	 1.06764	        -2269.02	         2174.34	        -94.6737
     937	 1.98259	 1.08096	        -2262.79	         2168.25	        -94.5446
     938	 1.97959	 1.08618	        -2259.44	         2164.97	        -94.4692
     939	 1.98028	 1.07994	        -2260.16	         2165.72	        -94.4471
     940	 1.98491	 1.06136	        -2265.26	         2170.78	        -94.4829
     941	 1.99285	 1.03232	        -2274.04	         2179.47	        -94.5703
     942	 2.00271	0.997019	        -2284.93	         2190.25	         -94.686
     943	 2.01268	0.960964	        -2295.94	         2201.15	        -94.7839
     944	 2.02127	0.928932	        -2305.34	         2210.54	        -94.8025
     945	  2.0279	0.902883	        -2312.56	         2217.79	        -94.7667
     946	 2.03259	0.882916	        -2317.71	         2222.93	        -94.7876
     947	 2.03486	0.870728	        -2320.25	         2225.41	        -94.8473
     948	 2.03389	0.869017	        -2319.17	         2224.34	        -94.8299
     949	 2.02972	 0.87768	         -2314.5	         2219.78	        -94.7203
     950	  2.0236	0.893023	        -2307.66	         2213.09	         -94.576
     951	  2.0173	0.909752	        -2300.66	          2206.2	        -94.4602
     952	 2.01228	0.923462	        -2295.14	         2200.71	        -94.4245
     953	 2.00903	0.932624	        -2291.63	         2197.16	        -94.4763
     954	 2.00695	0.938874	        -2289.45	         2194.89	         -94.563
     955	 2.00503	0.945139	        -2287.39	         2192.78	        -94.6142
     956	 2.00266	0.953082	        -2284.78	         2190.19	        -94.5926
     957	 2.00016	0.961718	        -2281.97	         2187.46	        -94.5139
     958	 1.99854	0.968011	        -2280.12	         2185.68	        -94.4356
     959	 1.99879	0.969015	        -2280.37	         2185.96	        -94.4127
     960	 2.00121	0.963939	        -2283.06	         2188.61	        -94.4547
     961	 2.00524	0.954578	        -2287.55	         2193.02	        -94.5313
     962	 2.00979	0.944246	        -2292.61	         2197.99	        -94.6186
     963	 2.01359	0.936742	        -2296.85	         2202.14	        -94.7123
     964	 2.01535	0.935872	        -2298.87	         2204.06	        -94.8032
     965	 2.01395	0.944888	         -2297.4	         2202.53	        -94.8681
     966	 2.00877	 0.96549	        -2291.75	         2196.87	        -94.8771
     967	  2.0001	0.996656	         -2282.2	          2187.4	        -94.7985
     968	 1.98951	 1.03364	        -2270.44	         2175.81	        -94.6294
     969	 1.97963	 1.06838	        -2259.47	         2165.01	        -94.4592
     970	 1.97298	 1.09311	        -2252.14	         2157.74	        -94.4052
     971	 1.97064	 1.10454	        -2249.63	         2155.17	         -94.455
     972	 1.97218	 1.10383	         -2251.4	         2156.87	        -94.5399
     973	 1.97648	 1.09424	         -2256.2	         2161.57	        -94.6343
     974	 1.98217	 1.07981	         -2262.5	         2167.78	         -94.719
     975	 1.98796	 1.06439	        -2268.88	         2174.12	        -94.7627
     976	 1.99314	 1.05038	        -2274.52	         2179.78	        -94.7374
     977	 1.99776	 1.03782	        -2279.51	         2184.83	        -94.6762
     978	 2.00223	 1.02566	        -2284.39	         2189.72	        -94.6708
     979	 2.00635	 1.01477	        -2288.97	         2194.23	        -94.7429
     980	 2.00905	 1.00851	        -2292.01	         2197.18	        -94.8283
     981	 2.00918	 1.01047	        -2292.19	         2197.32	        -94.8643
     982	 2.00625	 1.02208	        -2288.96	         2194.12	        -94.8401
     983	  2.0006	 1.04224	        -2282.75	         2187.93	        -94.8159
     984	  1.9927	 1.06925	        -2274.11	          2179.3	        -94.8169
     985	 1.98307	 1.10156	        -2263.51	         2168.77	        -94.7377
     986	  1.9732	 1.13469	        -2252.53	         2157.98	        -94.5453
     987	 1.96559	 1.16082	        -2244.08	         2149.65	        -94.4246
     988	 1.96176	 1.17509	        -2239.96	         2145.47	        -94.4988
     989	 1.96099	 1.17964	        -2239.26	         2144.62	        -94.6375
     990	 1.96161	 1.17937	           -2240	         2145.31	        -94.6909
     991	 1.96283	 1.17654	        -2241.28	         2146.64	        -94.6418
     992	  1.9651	 1.16982	        -2243.68	         2149.12	        -94.5655
     993	 1.96925	  1.1568	         -2248.2	         2153.65	        -94.5492
     994	  1.9754	 1.13723	        -2254.99	         2160.39	        -94.6094
     995	 1.98274	 1.11373	         -2263.1	         2168.41	        -94.6905
     996	 1.99008	 1.08993	        -2271.17	         2176.44	        -94.7306
     997	 1.99667	 1.06817	        -2278.36	         2183.65	        -94.7133
     998	 2.00244	 1.04876	        -2284.62	         2189.95	        -94.6762
     999	 2.00757	 1.03123	        -2290.23	         2195.56	        -94.6728
