    Step 	 temperature 	 pressure 	 Potential Energy 	 Kinetic Energy 	 Sum Energy

       0	 2.17658	-1.55473	        -4549.74	         4349.82	        -199.922
       1	 2.17665	-1.55139	        -4549.89	         4349.96	        -199.932
       2	 2.17679	-1.54117	        -4550.21	         4350.24	        -199.963
       3	 2.17682	-1.52347	        -4550.32	          4350.3	        -200.018
       4	  2.1764	-1.49726	        -4549.57	         4349.47	        -200.101
       5	 2.17503	-1.46101	        -4546.94	         4346.72	        -200.221
       6	 2.17197	-1.41258	           -4541	         4340.62	        -200.386
       7	 2.16624	-1.34912	        -4529.77	         4329.17	        -200.607
       8	 2.15652	  -1.267	        -4510.66	         4309.77	        -200.886
       9	 2.14124	-1.16195	        -4480.47	         4279.26	        -201.208
      10	  2.1187	-1.02959	        -4435.77	         4234.25	        -201.514
      11	 2.08756	-0.866842	        -4373.79	         4172.09	        -201.691
      12	 2.04766	-0.674228	        -4294.06	         4092.44	        -201.624
      13	 2.00066	-0.457874	        -4199.89	         3998.59	          -201.3
      14	 1.94999	-0.22936	        -4098.26	         3897.44	        -200.828
      15	  1.9001	-0.00315533	        -3998.17	         3797.82	        -200.345
      16	  1.8553	0.206621	        -3908.35	         3708.39	        -199.965
      17	 1.81895	0.388891	        -3835.56	         3635.81	        -199.754
      18	 1.79289	0.537173	         -3783.5	         3583.77	        -199.727
      19	  1.7774	0.649884	         -3752.7	         3552.86	        -199.849
      20	 1.77148	0.729537	        -3741.09	         3541.04	        -200.055
      21	 1.77336	0.781189	        -3745.06	         3544.78	        -200.277
      22	 1.78103	0.810809	        -3760.58	         3560.11	         -200.47
      23	 1.79267	0.824103	        -3783.96	         3583.34	         -200.62
      24	 1.80676	 0.82594	        -3812.21	         3611.48	        -200.731
      25	 1.82214	0.820301	        -3843.01	         3642.18	        -200.823
      26	 1.83786	0.810524	        -3874.46	         3673.56	        -200.909
      27	 1.85311	0.799503	        -3904.99	            3704	        -200.989
      28	 1.86724	0.789649	        -3933.27	         3732.21	        -201.058
      29	 1.87979	0.782752	        -3958.38	         3757.28	        -201.103
      30	 1.89059	0.779712	        -3979.94	         3778.84	        -201.099
      31	 1.89988	 0.78016	        -3998.44	         3797.39	        -201.047
      32	 1.90821	0.782723	        -4015.02	         3814.01	        -201.013
      33	 1.91598	0.786355	        -4030.58	         3829.54	        -201.041
      34	 1.92322	0.791254	        -4045.08	         3843.99	         -201.09
      35	  1.9297	0.798238	        -4058.05	         3856.92	        -201.131
      36	 1.93513	0.808204	        -4068.96	         3867.77	        -201.192
      37	 1.93913	0.822384	        -4076.99	         3875.75	        -201.243
      38	 1.94145	0.841618	        -4081.58	         3880.38	        -201.206
      39	 1.94242	0.864966	        -4083.41	         3882.32	        -201.097
      40	 1.94281	0.890083	        -4084.14	          3883.1	        -201.037
      41	 1.94311	0.915448	        -4084.78	          3883.7	        -201.084
      42	 1.94317	0.941437	        -4084.96	         3883.82	        -201.145
      43	 1.94272	0.968739	        -4084.06	         3882.92	        -201.138
      44	 1.94186	0.996837	         -4082.3	          3881.2	        -201.105
      45	 1.94087	 1.02466	        -4080.33	         3879.22	        -201.105
      46	  1.9399	 1.05164	        -4078.41	         3877.29	        -201.123
      47	 1.93898	 1.07756	        -4076.59	         3875.44	        -201.148
      48	 1.93805	 1.10237	        -4074.78	         3873.58	        -201.195
      49	 1.93697	 1.12637	        -4072.68	         3871.44	        -201.239
      50	 1.93567	 1.14971	        -4070.08	         3868.84	        -201.241
      51	 1.93432	 1.17175	        -4067.37	         3866.15	        -201.216
      52	 1.93329	 1.19142	        -4065.29	         3864.08	        -201.202
      53	 1.93286	 1.20789	        -4064.43	         3863.23	        -201.207
      54	 1.93316	  1.2209	        -4065.06	         3863.83	         -201.23
      55	 1.93411	 1.23077	        -4066.99	         3865.72	        -201.273
      56	 1.93542	 1.23843	        -4069.64	         3868.33	        -201.312
      57	 1.93675	  1.2449	        -4072.32	            3871	        -201.321
      58	 1.93795	 1.25064	        -4074.69	         3873.39	        -201.304
      59	 1.93905	 1.25552	        -4076.85	         3875.59	        -201.268
      60	 1.94029	 1.25881	        -4079.28	         3878.07	        -201.212
      61	 1.94211	  1.2593	        -4082.85	         3881.71	         -201.14
      62	 1.94503	 1.25547	        -4088.63	         3887.53	        -201.105
      63	 1.94927	 1.24669	        -4097.15	         3895.99	        -201.163
      64	 1.95443	 1.23424	        -4107.57	         3906.29	        -201.283
      65	  1.9597	 1.22068	        -4118.18	         3916.83	        -201.356
      66	 1.96459	 1.20771	        -4127.89	         3926.57	        -201.317
      67	 1.96923	 1.19502	        -4137.07	         3935.84	        -201.224
      68	 1.97413	 1.18132	        -4146.79	         3945.62	        -201.175
      69	 1.97951	 1.16615	        -4157.53	         3956.36	        -201.176
      70	 1.98524	 1.15015	        -4169.01	         3967.81	        -201.195
      71	   1.991	  1.1345	        -4180.55	          3979.3	        -201.249
      72	  1.9962	 1.12104	        -4191.03	         3989.69	        -201.335
      73	  2.0001	 1.11217	        -4198.91	         3997.47	        -201.432
      74	 2.00186	 1.11036	        -4202.54	         4000.99	        -201.548
      75	 2.00064	 1.11805	         -4200.2	         3998.55	        -201.651
      76	 1.99589	 1.13677	         -4190.7	         3989.07	        -201.632
      77	 1.98805	 1.16511	        -4174.86	         3973.42	        -201.434
      78	 1.97879	 1.19791	        -4156.11	         3954.93	        -201.187
      79	 1.97008	 1.22896	        -4138.63	         3937.54	        -201.091
      80	   1.963	 1.25487	        -4124.56	         3923.41	        -201.153
      81	 1.95759	 1.27542	        -4113.82	          3912.6	        -201.223
      82	 1.95364	 1.29097	        -4105.98	         3904.72	         -201.26
      83	 1.95109	  1.3015	        -4100.94	         3899.63	        -201.311
      84	 1.94986	 1.30719	         -4098.5	         3897.17	        -201.327
      85	 1.95009	 1.30769	         -4098.9	         3897.62	        -201.277
      86	 1.95212	  1.3019	        -4102.98	         3901.68	          -201.3
      87	 1.95574	 1.29053	        -4110.38	          3908.9	         -201.48
      88	 1.95965	 1.27753	        -4118.44	         3916.73	         -201.71
      89	 1.96217	 1.26803	        -4123.63	         3921.75	        -201.877
      90	   1.962	 1.26583	        -4123.33	         3921.41	        -201.927
      91	 1.95878	 1.27197	         -4116.8	         3914.98	        -201.819
      92	  1.9534	 1.28387	        -4105.78	         3904.25	        -201.529
      93	 1.94806	 1.29512	        -4094.72	         3893.59	        -201.134
      94	 1.94554	 1.29749	         -4089.4	         3888.55	        -200.858
      95	  1.9477	 1.28556	        -4093.72	         3892.85	        -200.862
      96	 1.95439	 1.25998	        -4107.31	         3906.21	        -201.103
      97	 1.96369	 1.22664	        -4126.19	         3924.78	        -201.418
      98	 1.97305	 1.19327	        -4145.12	         3943.46	        -201.655
      99	 1.98048	 1.16598	        -4160.02	          3958.3	        -201.723
     100	 1.98525	 1.14712	        -4169.47	         3967.83	        -201.643
     101	 1.98771	 1.13572	        -4174.31	         3972.74	        -201.569
     102	  1.9884	 1.13024	        -4175.65	         3974.11	         -201.54
     103	 1.98778	 1.12943	         -4174.3	         3972.88	        -201.418
     104	 1.98685	  1.1303	        -4172.26	         3971.03	        -201.232
     105	 1.98687	 1.12888	        -4172.24	         3971.07	        -201.168
     106	 1.98833	 1.12361	        -4175.25	         3973.98	        -201.271
     107	 1.99063	 1.11625	        -4179.98	         3978.57	        -201.416
     108	  1.9928	 1.10963	         -4184.4	          3982.9	        -201.494
     109	 1.99427	 1.10542	        -4187.35	         3985.84	        -201.509
     110	 1.99484	 1.10416	        -4188.52	         3986.98	        -201.545
     111	 1.99427	 1.10661	        -4187.43	         3985.83	        -201.597
     112	 1.99225	 1.11373	        -4183.39	          3981.8	        -201.588
     113	 1.98882	  1.1253	         -4176.5	         3974.96	        -201.533
     114	 1.98436	 1.14009	        -4167.52	         3966.05	        -201.469
     115	  1.9794	 1.15635	        -4157.53	         3956.15	        -201.373
     116	 1.97475	 1.17158	         -4148.1	         3946.86	         -201.24
     117	 1.97146	 1.18252	        -4141.41	          3940.3	        -201.109
     118	 1.97053	 1.18612	        -4139.51	         3938.44	        -201.063
     119	 1.97226	 1.18141	         -4143.1	          3941.9	        -201.201
     120	 1.97565	 1.17132	        -4150.16	         3948.66	          -201.5
     121	 1.97865	   1.162	        -4156.41	         3954.65	        -201.751
     122	 1.97955	 1.15866	        -4158.23	         3956.45	         -201.78
     123	 1.97819	 1.16189	        -4155.32	         3953.72	        -201.591
     124	 1.97589	 1.16782	        -4150.51	         3949.14	        -201.371
     125	 1.97421	 1.17188	        -4147.11	         3945.78	        -201.331
     126	 1.97355	 1.17291	        -4145.91	         3944.47	        -201.436
     127	  1.9733	 1.17278	        -4145.51	         3943.97	        -201.532
     128	 1.97278	 1.17343	        -4144.48	         3942.93	        -201.543
     129	 1.97185	 1.17517	        -4142.58	         3941.08	          -201.5
     130	 1.97082	 1.17705	        -4140.47	         3939.02	        -201.459
     131	 1.97003	 1.17802	        -4138.88	         3937.43	        -201.446
     132	 1.96968	 1.17753	        -4138.16	         3936.74	        -201.425
     133	 1.96996	 1.17506	        -4138.68	          3937.3	        -201.378
     134	 1.97112	 1.16985	        -4140.97	         3939.62	        -201.347
     135	  1.9733	 1.16157	        -4145.29	         3943.96	        -201.326
     136	  1.9765	 1.15026	        -4151.65	         3950.35	        -201.298
     137	 1.98069	 1.13609	        -4160.02	         3958.73	        -201.291
     138	 1.98566	  1.1198	        -4169.97	         3968.65	        -201.324
     139	 1.99087	 1.10305	        -4180.44	         3979.05	        -201.388
     140	 1.99559	 1.08811	        -4189.93	         3988.48	        -201.448
     141	 1.99912	 1.07714	           -4197	         3995.53	        -201.477
     142	 2.00101	 1.07154	        -4200.76	         3999.28	        -201.474
     143	 2.00106	 1.07182	        -4200.85	         3999.39	         -201.46
     144	 1.99927	 1.07791	        -4197.27	         3995.82	        -201.446
     145	 1.99576	  1.0894	        -4190.23	         3988.81	        -201.421
     146	 1.99081	 1.10524	         -4180.3	         3978.93	        -201.366
     147	 1.98502	  1.1235	        -4168.63	         3967.37	        -201.266
     148	 1.97932	  1.1412	        -4157.13	         3955.99	         -201.14
     149	 1.97481	 1.15492	        -4148.02	         3946.98	        -201.042
     150	 1.97234	 1.16198	        -4143.07	         3942.06	        -201.017
     151	  1.9722	 1.16147	        -4142.85	         3941.77	        -201.083
     152	 1.97393	 1.15467	        -4146.47	         3945.23	        -201.242
     153	  1.9764	 1.14497	         -4151.6	         3950.16	        -201.443
     154	 1.97822	 1.13657	        -4155.37	         3953.79	         -201.58
     155	 1.97844	 1.13243	        -4155.81	         3954.22	        -201.587
     156	 1.97698	 1.13281	        -4152.84	         3951.32	        -201.515
     157	 1.97436	 1.13627	        -4147.54	         3946.08	         -201.46
     158	 1.97112	 1.14128	        -4141.03	         3939.62	        -201.406
     159	 1.96793	 1.14601	        -4134.53	         3933.25	        -201.276
     160	 1.96587	 1.14731	        -4130.26	         3929.13	        -201.125
     161	 1.96605	 1.14187	        -4130.58	          3929.5	         -201.08
     162	 1.96883	 1.12873	        -4136.23	         3935.04	        -201.184
     163	 1.97344	 1.11026	        -4145.63	         3944.24	         -201.39
     164	  1.9784	 1.09102	         -4155.7	         3954.14	        -201.557
     165	 1.98243	 1.07497	        -4163.81	          3962.2	        -201.605
     166	 1.98509	 1.06366	        -4169.07	          3967.5	        -201.564
     167	 1.98658	 1.05665	        -4171.98	         3970.48	        -201.503
     168	  1.9873	  1.0529	        -4173.43	         3971.91	        -201.513
     169	 1.98719	 1.05265	        -4173.31	         3971.69	        -201.615
     170	 1.98563	 1.05774	        -4170.29	         3968.59	          -201.7
     171	 1.98213	 1.06957	        -4163.28	          3961.6	        -201.672
     172	 1.97692	 1.08727	        -4152.74	         3951.19	        -201.543
     173	 1.97093	  1.1078	        -4140.63	         3939.24	        -201.395
     174	 1.96532	 1.12751	        -4129.32	         3928.04	        -201.283
     175	 1.96103	 1.14342	        -4120.69	         3919.47	        -201.212
     176	 1.95866	 1.15355	        -4115.93	         3914.74	        -201.197
     177	 1.95832	 1.15736	        -4115.33	         3914.06	        -201.262
     178	 1.95955	 1.15615	        -4117.91	         3916.52	        -201.389
     179	  1.9614	 1.15266	        -4121.75	         3920.21	        -201.536
     180	 1.96277	 1.15014	         -4124.6	         3922.96	        -201.646
     181	 1.96288	 1.15102	        -4124.82	         3923.17	         -201.65
     182	 1.96168	 1.15556	         -4122.3	         3920.76	        -201.536
     183	 1.95989	 1.16165	        -4118.59	          3917.2	        -201.384
     184	 1.95855	  1.1664	         -4115.8	         3914.52	        -201.286
     185	 1.95828	 1.16801	        -4115.25	         3913.97	        -201.274
     186	 1.95912	 1.16647	        -4116.98	         3915.65	        -201.326
     187	 1.96062	 1.16311	        -4120.08	         3918.66	        -201.416
     188	 1.96208	 1.16003	         -4123.1	         3921.57	        -201.528
     189	 1.96269	 1.15956	        -4124.41	         3922.78	        -201.624
     190	 1.96186	 1.16341	        -4122.77	         3921.13	        -201.641
     191	 1.95962	 1.17142	        -4118.21	         3916.65	        -201.554
     192	  1.9567	 1.18128	        -4112.25	         3910.82	        -201.427
     193	 1.95409	 1.18987	        -4106.96	         3905.62	        -201.344
     194	 1.95251	 1.19494	        -4103.77	         3902.46	         -201.31
     195	 1.95226	 1.19546	        -4103.25	         3901.95	        -201.294
     196	 1.95339	 1.19116	         -4105.5	         3904.21	        -201.286
     197	  1.9558	 1.18228	        -4110.31	         3909.02	        -201.287
     198	 1.95927	 1.16946	        -4117.25	         3915.95	          -201.3
     199	 1.96346	 1.15373	        -4125.64	         3924.32	         -201.33
     200	 1.96793	 1.13642	        -4134.63	         3933.26	        -201.373
     201	 1.97223	 1.11901	        -4143.24	         3941.83	        -201.408
     202	   1.976	 1.10264	        -4150.77	         3949.36	        -201.412
     203	 1.97914	 1.08766	        -4157.03	         3955.64	        -201.396
     204	 1.98178	 1.07386	        -4162.27	         3960.89	        -201.372
     205	 1.98415	 1.06062	        -4166.94	         3965.63	        -201.318
     206	 1.98676	 1.04664	        -4172.05	         3970.84	        -201.211
     207	 1.99038	  1.0298	         -4179.2	         3978.07	        -201.122
     208	 1.99554	 1.00865	        -4189.53	         3988.36	        -201.161
     209	 2.00186	0.984465	         -4202.3	         4000.98	        -201.314
     210	 2.00816	0.960936	        -4215.05	         4013.57	        -201.478
     211	 2.01315	0.942069	        -4225.12	         4023.53	        -201.586
     212	 2.01593	0.930591	        -4230.71	         4029.09	        -201.627
     213	 2.01625	0.927402	         -4231.3	         4029.72	        -201.581
     214	 2.01467	0.931065	        -4227.95	         4026.55	        -201.392
     215	 2.01273	0.937171	        -4223.84	         4022.69	        -201.158
     216	   2.012	0.940941	        -4222.42	         4021.24	        -201.181
     217	 2.01244	0.942586	        -4223.48	         4022.11	        -201.374
     218	 2.01276	0.945976	        -4224.23	         4022.76	        -201.476
     219	 2.01201	0.953772	        -4222.73	         4021.24	         -201.49
     220	 2.00982	0.966792	        -4218.39	         4016.89	        -201.499
     221	 2.00606	0.985343	        -4210.91	         4009.37	        -201.538
     222	 2.00049	  1.0099	        -4199.82	         3998.25	        -201.575
     223	 1.99305	 1.04044	        -4184.94	          3983.4	        -201.538
     224	 1.98426	 1.07516	        -4167.26	         3965.85	        -201.406
     225	 1.97531	 1.11026	        -4149.23	         3947.98	         -201.25
     226	 1.96756	 1.14136	        -4133.67	         3932.52	        -201.158
     227	 1.96203	 1.16531	        -4122.58	         3921.47	        -201.107
     228	 1.95939	  1.1801	        -4117.23	         3916.19	        -201.042
     229	 1.96012	  1.1842	        -4118.69	         3917.65	        -201.043
     230	 1.96409	 1.17801	        -4126.78	         3925.59	        -201.192
     231	 1.97009	 1.16527	           -4139	         3937.55	        -201.448
     232	 1.97609	 1.15202	        -4151.23	         3949.55	        -201.684
     233	 1.98029	  1.1438	        -4159.67	         3957.92	         -201.75
     234	 1.98204	 1.14254	        -4163.04	         3961.42	        -201.616
     235	 1.98213	 1.14592	        -4163.01	          3961.6	        -201.408
     236	 1.98192	 1.14981	        -4162.47	         3961.18	        -201.288
     237	 1.98223	 1.15164	        -4163.14	          3961.8	        -201.343
     238	 1.98275	 1.15217	        -4164.32	         3962.83	        -201.494
     239	 1.98258	 1.15394	        -4164.04	          3962.5	        -201.541
     240	 1.98152	 1.15754	        -4161.78	         3960.39	        -201.388
     241	 1.98059	  1.1599	        -4159.69	         3958.52	        -201.168
     242	 1.98116	 1.15687	        -4160.75	         3959.65	          -201.1
     243	 1.98363	 1.14742	        -4165.79	         3964.58	        -201.204
     244	 1.98725	 1.13403	        -4173.11	         3971.81	        -201.297
     245	  1.9912	 1.11929	        -4180.99	          3979.7	        -201.284
     246	  1.9953	 1.10389	        -4189.11	          3987.9	        -201.212
     247	 1.99983	 1.08721	        -4198.09	         3996.94	        -201.157
     248	 2.00499	  1.0689	         -4208.4	         4007.24	         -201.16
     249	 2.01062	 1.04967	        -4219.69	         4018.47	        -201.216
     250	 2.01616	  1.0313	        -4230.85	         4029.53	        -201.318
     251	 2.02076	  1.0164	        -4240.17	         4038.72	        -201.446
     252	  2.0235	 1.00776	        -4245.73	         4044.19	        -201.536
     253	  2.0238	 1.00708	        -4246.33	         4044.79	        -201.543
     254	 2.02167	 1.01419	        -4242.04	         4040.53	         -201.51
     255	 2.01752	  1.0277	        -4233.71	         4032.25	        -201.467
     256	 2.01198	 1.04562	        -4222.56	         4021.19	        -201.377
     257	  2.0061	 1.06481	        -4210.64	         4009.45	        -201.189
     258	 2.00159	 1.08027	        -4201.38	         4000.44	        -200.937
     259	 2.00023	 1.08658	        -4198.62	         3997.74	        -200.887
     260	  2.0023	 1.08294	        -4202.99	         4001.87	        -201.125
     261	 2.00609	 1.07458	        -4210.81	         4009.44	        -201.379
     262	 2.00949	 1.06773	        -4217.72	         4016.22	        -201.499
     263	 2.01123	 1.06606	        -4221.18	         4019.69	        -201.487
     264	 2.01109	 1.07022	         -4220.8	         4019.41	        -201.382
     265	 2.00961	 1.07861	        -4217.72	         4016.46	        -201.259
     266	 2.00753	 1.08898	        -4213.51	         4012.32	        -201.197
     267	 2.00528	 1.10004	        -4209.04	         4007.82	        -201.219
     268	 2.00277	 1.11198	        -4204.07	          4002.8	        -201.273
     269	 1.99972	 1.12556	        -4198.01	         3996.73	        -201.288
     270	 1.99615	  1.1407	        -4190.83	         3989.59	        -201.241
     271	 1.99244	 1.15617	        -4183.36	         3982.18	        -201.186
     272	 1.98905	 1.17049	        -4176.59	         3975.41	        -201.178
     273	  1.9862	 1.18301	        -4170.92	         3969.73	        -201.191
     274	 1.98397	  1.1935	        -4166.46	         3965.28	        -201.185
     275	 1.98245	  1.2016	        -4163.44	         3962.23	        -201.201
     276	 1.98152	 1.20751	        -4161.66	         3960.38	        -201.283
     277	 1.98069	 1.21263	        -4160.08	         3958.72	         -201.36
     278	 1.97951	 1.21822	         -4157.7	         3956.36	        -201.343
     279	 1.97809	 1.22378	         -4154.8	         3953.54	        -201.261
     280	 1.97702	 1.22744	         -4152.6	          3951.4	        -201.193
     281	 1.97686	 1.22747	        -4152.23	         3951.07	        -201.153
     282	 1.97799	  1.2227	        -4154.45	         3953.32	        -201.124
     283	 1.98061	  1.2125	         -4159.7	         3958.56	         -201.14
     284	 1.98455	  1.1974	        -4167.64	         3966.42	        -201.219
     285	  1.9892	 1.17933	        -4177.01	         3975.71	        -201.304
     286	 1.99385	 1.16054	        -4186.35	            3985	        -201.349
     287	 1.99806	 1.14256	        -4194.76	          3993.4	        -201.357
     288	 2.00164	 1.12616	        -4201.89	         4000.55	        -201.341
     289	 2.00465	 1.11146	        -4207.87	         4006.56	        -201.314
     290	 2.00721	 1.09836	        -4212.97	         4011.66	        -201.313
     291	 2.00924	 1.08723	         -4217.1	         4015.72	        -201.382
     292	 2.01026	 1.07966	        -4219.24	         4017.76	        -201.477
     293	 2.00967	 1.07761	        -4218.09	         4016.58	        -201.504
     294	 2.00728	 1.08162	        -4213.27	         4011.82	        -201.451
     295	 2.00347	 1.09051	        -4205.57	          4004.2	         -201.37
     296	 1.99885	 1.10232	        -4196.28	         3994.98	        -201.296
     297	 1.99409	 1.11498	        -4186.71	         3985.48	        -201.229
     298	 1.98977	 1.12653	        -4178.05	         3976.86	         -201.19
     299	 1.98629	 1.13561	        -4171.12	         3969.91	        -201.213
     300	 1.98364	 1.14208	        -4165.91	         3964.61	        -201.307
     301	 1.98133	  1.1472	        -4161.43	            3960	        -201.433
     302	 1.97874	  1.1528	        -4156.33	         3954.82	        -201.505
     303	 1.97555	 1.15975	        -4149.94	         3948.46	        -201.476
     304	 1.97206	 1.16715	        -4142.91	          3941.5	         -201.41
     305	 1.96885	 1.17332	        -4136.41	         3935.08	        -201.327
     306	 1.96663	 1.17632	        -4131.83	         3930.64	        -201.191
     307	  1.9663	 1.17355	        -4131.08	         3929.99	        -201.092
     308	 1.96835	 1.16359	        -4135.27	          3934.1	         -201.17
     309	 1.97209	 1.14859	        -4142.95	         3941.55	        -201.404
     310	 1.97576	 1.13379	        -4150.52	         3948.89	        -201.629
     311	  1.9777	 1.12419	        -4154.48	         3952.76	        -201.718
     312	 1.97722	 1.12181	        -4153.45	          3951.8	        -201.648
     313	 1.97483	  1.1251	        -4148.51	         3947.02	        -201.499
     314	 1.97165	 1.13067	        -4142.05	         3940.66	        -201.383
     315	 1.96873	 1.13539	        -4136.13	         3934.84	        -201.295
     316	 1.96693	 1.13677	        -4132.44	         3931.24	        -201.195
     317	 1.96705	 1.13237	         -4132.6	         3931.48	        -201.122
     318	 1.96958	  1.1207	        -4137.69	         3936.55	        -201.141
     319	 1.97434	 1.10239	         -4147.3	         3946.05	        -201.248
     320	 1.98046	 1.08008	        -4159.64	         3958.26	        -201.371
     321	  1.9869	 1.05694	        -4172.56	         3971.12	        -201.441
     322	 1.99299	  1.0351	         -4184.7	         3983.27	        -201.428
     323	 1.99866	 1.01485	        -4195.94	          3994.6	        -201.336
     324	 2.00445	0.994817	        -4207.36	         4006.16	        -201.205
     325	  2.0111	0.972967	        -4220.57	         4019.43	        -201.138
     326	 2.01876	0.948905	        -4235.99	         4034.72	        -201.264
     327	 2.02626	0.926223	        -4251.22	          4049.7	        -201.523
     328	 2.03157	0.911093	        -4262.01	         4060.31	        -201.705
     329	 2.03315	0.908077	        -4265.18	         4063.47	        -201.716
     330	 2.03076	0.917829	        -4260.27	         4058.68	        -201.587
     331	 2.02526	0.937578	        -4249.12	         4047.71	        -201.409
     332	 2.01808	0.962979	        -4234.61	         4033.36	        -201.246
     333	 2.01062	0.989649	        -4219.57	         4018.47	        -201.095
     334	  2.0042	 1.01348	        -4206.63	         4005.66	        -200.967
     335	 1.99988	 1.03111	        -4197.97	         3997.03	        -200.935
     336	 1.99802	 1.04127	        -4194.34	         3993.32	         -201.02
     337	 1.99817	 1.04522	        -4194.79	         3993.62	        -201.174
     338	  1.9993	 1.04589	        -4197.23	         3995.87	        -201.361
     339	  2.0001	 1.04705	        -4199.01	         3997.47	        -201.541
     340	 1.99939	 1.05217	        -4197.68	         3996.05	        -201.632
     341	 1.99668	  1.0627	         -4192.2	         3990.65	        -201.545
     342	 1.99277	 1.07635	        -4184.15	         3982.84	        -201.312
     343	 1.98934	 1.08808	        -4177.12	         3975.98	        -201.132
     344	 1.98772	 1.09393	        -4173.88	         3972.76	        -201.123
     345	 1.98818	 1.09336	        -4174.84	         3973.67	        -201.174
     346	 1.99033	 1.08761	        -4179.19	         3977.97	        -201.229
     347	 1.99355	 1.07861	        -4185.73	         3984.39	        -201.335
     348	 1.99684	 1.06941	        -4192.43	         3990.97	        -201.468
     349	 1.99902	 1.06367	         -4196.9	         3995.31	        -201.587
     350	 1.99905	  1.0645	        -4197.05	         3995.39	        -201.659
     351	 1.99642	 1.07357	        -4191.77	         3990.13	        -201.643
     352	 1.99133	 1.09028	        -4181.52	         3979.96	         -201.56
     353	  1.9846	 1.11217	        -4167.98	         3966.53	        -201.451
     354	 1.97741	 1.13577	        -4153.48	         3952.17	        -201.314
     355	 1.97106	 1.15703	        -4140.72	          3939.5	        -201.221
     356	 1.96654	 1.17286	        -4131.69	         3930.48	        -201.208
     357	 1.96433	 1.18185	        -4127.21	         3926.05	        -201.163
     358	 1.96484	  1.1826	        -4128.19	         3927.07	        -201.117
     359	 1.96831	 1.17429	        -4135.18	         3934.01	        -201.169
     360	 1.97428	 1.15834	        -4147.24	         3945.93	        -201.311
     361	 1.98152	 1.13834	         -4161.9	         3960.38	        -201.519
     362	 1.98837	  1.1192	        -4175.73	         3974.05	        -201.679
     363	 1.99357	 1.10474	         -4186.1	         3984.43	         -201.67
     364	 1.99698	 1.09536	        -4192.79	         3991.24	        -201.549
     365	 1.99922	 1.08918	         -4197.2	         3995.72	        -201.481
     366	  2.0007	 1.08502	        -4200.16	         3998.67	        -201.494
     367	 2.00136	 1.08311	        -4201.48	            4000	        -201.487
     368	 2.00126	 1.08326	         -4201.2	         3999.79	        -201.404
     369	 2.00085	 1.08397	        -4200.29	         3998.98	        -201.317
     370	 2.00062	 1.08359	        -4199.82	         3998.51	        -201.308
     371	  2.0006	 1.08196	         -4199.8	         3998.47	        -201.329
     372	 2.00065	 1.07953	        -4199.85	         3998.58	        -201.268
     373	 2.00107	 1.07551	        -4200.56	         3999.41	        -201.143
     374	 2.00248	 1.06811	        -4203.31	         4002.23	        -201.081
     375	  2.0051	 1.05682	        -4208.61	         4007.46	        -201.148
     376	 2.00835	 1.04358	        -4215.22	         4013.94	        -201.279
     377	 2.01124	 1.03145	        -4221.07	         4019.73	        -201.348
     378	 2.01325	 1.02222	        -4225.03	         4023.73	        -201.302
     379	 2.01454	 1.01547	        -4227.54	          4026.3	        -201.243
     380	 2.01535	 1.01046	         -4229.2	         4027.91	        -201.286
     381	 2.01537	  1.0082	        -4229.34	         4027.96	        -201.379
     382	 2.01397	 1.01059	         -4226.6	         4025.16	         -201.44
     383	 2.01074	 1.01875	        -4220.17	         4018.73	        -201.444
     384	  2.0058	  1.0323	        -4210.24	         4008.86	        -201.378
     385	 1.99983	 1.04919	        -4198.19	         3996.93	        -201.259
     386	 1.99391	 1.06611	        -4186.27	         3985.12	        -201.144
     387	 1.98915	  1.0798	        -4176.69	         3975.61	        -201.076
     388	 1.98627	 1.08808	        -4170.93	         3969.86	         -201.07
     389	 1.98548	  1.0903	        -4169.44	         3968.29	        -201.148
     390	 1.98634	 1.08774	         -4171.3	            3970	        -201.298
     391	 1.98791	 1.08318	        -4174.57	         3973.14	        -201.423
     392	 1.98947	 1.07886	        -4177.67	         3976.25	        -201.422
     393	 1.99106	 1.07468	        -4180.74	         3979.43	        -201.309
     394	 1.99346	 1.06843	        -4185.41	         3984.21	        -201.198
     395	 1.99733	 1.05811	        -4193.16	         3991.95	         -201.21
     396	  2.0025	 1.04432	        -4203.64	         4002.27	        -201.363
     397	 2.00783	 1.03052	        -4214.44	          4012.9	        -201.536
     398	 2.01195	 1.02076	        -4222.75	         4021.13	        -201.626
     399	 2.01402	  1.0175	        -4226.91	         4025.27	        -201.634
     400	 2.01383	 1.02139	        -4226.48	         4024.88	        -201.601
     401	 2.01165	 1.03168	        -4222.01	         4020.52	        -201.486
     402	 2.00849	 1.04553	        -4215.49	         4014.23	        -201.259
     403	 2.00597	 1.05806	        -4210.32	         4009.19	        -201.131
     404	 2.00497	 1.06647	        -4208.41	         4007.19	         -201.22
     405	 2.00507	 1.07206	        -4208.66	         4007.39	        -201.273
     406	 2.00576	 1.07612	        -4210.03	         4008.78	        -201.252
     407	 2.00683	 1.07896	        -4212.26	         4010.92	        -201.337
     408	 2.00753	 1.08268	        -4213.83	         4012.31	        -201.514
     409	 2.00666	 1.09079	        -4212.19	         4010.57	        -201.621
     410	 2.00354	 1.10523	         -4205.9	         4004.35	        -201.555
     411	 1.99884	 1.12409	        -4196.26	         3994.95	        -201.306
     412	 1.99436	 1.14186	        -4187.09	         3986.02	        -201.077
     413	 1.99171	 1.15361	        -4181.82	         3980.72	        -201.097
     414	 1.99095	 1.15911	        -4180.44	         3979.21	        -201.228
     415	 1.99128	 1.16071	        -4181.16	         3979.88	        -201.288
     416	 1.99223	 1.15968	        -4183.03	         3981.77	        -201.262
     417	 1.99396	 1.15558	        -4186.38	         3985.22	        -201.163
     418	 1.99717	 1.14653	        -4192.66	         3991.62	        -201.038
     419	 2.00261	 1.13046	        -4203.51	         4002.49	        -201.022
     420	 2.01021	 1.10782	        -4218.84	         4017.65	        -201.193
     421	 2.01856	 1.08299	        -4235.81	         4034.33	        -201.478
     422	 2.02546	 1.06273	        -4249.85	          4048.1	         -201.75
     423	  2.0288	 1.05334	        -4256.67	         4054.78	         -201.89
     424	 2.02752	 1.05807	        -4254.08	         4052.22	         -201.86
     425	 2.02182	 1.07617	        -4242.57	         4040.84	        -201.732
     426	 2.01281	 1.10421	        -4224.41	         4022.86	        -201.555
     427	 2.00222	 1.13703	           -4203	         4001.72	        -201.279
     428	 1.99244	 1.16746	        -4183.13	         3982.17	        -200.962
     429	 1.98588	 1.18802	        -4169.92	         3969.08	        -200.842
     430	 1.98356	 1.19555	        -4165.44	         3964.44	        -200.997
     431	 1.98457	 1.19277	        -4167.71	         3966.46	        -201.247
     432	 1.98708	 1.18502	        -4172.94	         3971.48	        -201.461
     433	 1.98938	 1.17732	        -4177.68	         3976.07	        -201.611
     434	 1.99024	  1.1733	        -4179.45	         3977.78	         -201.67
     435	 1.98913	 1.17459	        -4177.21	         3975.56	        -201.647
     436	 1.98617	 1.18082	        -4171.25	         3969.67	        -201.588
     437	 1.98192	 1.19045	        -4162.67	         3961.17	        -201.501
     438	 1.97723	   1.201	        -4153.18	         3951.81	        -201.361
     439	 1.97337	 1.20881	         -4145.3	         3944.11	        -201.183
     440	  1.9718	  1.2097	           -4142	         3940.97	        -201.034
     441	 1.97359	 1.20051	        -4145.57	         3944.56	        -201.013
     442	 1.97882	 1.18121	        -4156.13	         3954.98	        -201.146
     443	 1.98638	 1.15522	        -4171.42	         3970.09	        -201.334
     444	 1.99466	  1.1275	        -4188.13	         3986.62	        -201.506
     445	 2.00204	 1.10292	        -4203.01	         4001.35	        -201.662
     446	 2.00708	 1.08576	        -4213.19	         4011.41	        -201.789
     447	 2.00868	 1.07922	        -4216.44	         4014.61	        -201.833
     448	 2.00652	 1.08423	        -4212.02	         4010.29	        -201.728
     449	 2.00143	 1.09819	        -4201.58	         4000.12	        -201.454
     450	 1.99544	  1.1149	         -4189.3	         3988.18	        -201.119
     451	 1.99099	 1.12696	        -4180.21	         3979.29	        -200.923
     452	 1.98951	  1.1299	        -4177.31	         3976.33	        -200.981
     453	 1.99071	 1.12444	        -4179.93	         3978.73	        -201.197
     454	 1.99316	  1.1148	        -4185.03	         3983.62	        -201.409
     455	 1.99532	 1.10545	        -4189.47	         3987.93	        -201.541
     456	 1.99626	 1.09919	        -4191.36	          3989.8	        -201.559
     457	 1.99594	 1.09624	        -4190.64	         3989.17	         -201.47
     458	 1.99503	  1.0947	        -4188.76	         3987.34	        -201.412
     459	 1.99405	 1.09306	        -4186.82	         3985.39	        -201.428
     460	 1.99321	 1.09098	        -4185.07	         3983.72	        -201.352
     461	 1.99311	 1.08678	        -4184.73	         3983.51	        -201.219
     462	 1.99447	 1.07816	        -4187.47	         3986.23	        -201.237
     463	 1.99708	 1.06582	        -4192.84	         3991.45	        -201.385
     464	 1.99988	 1.05306	        -4198.52	         3997.03	        -201.487
     465	 2.00202	  1.0424	        -4202.75	         4001.31	        -201.437
     466	 2.00368	 1.03341	        -4205.91	         4004.62	         -201.29
     467	 2.00571	 1.02362	        -4209.85	         4008.68	        -201.172
     468	 2.00889	 1.01091	        -4216.15	         4015.03	        -201.126
     469	 2.01351	0.994616	        -4225.39	         4024.24	        -201.149
     470	 2.01924	0.975761	        -4236.96	         4035.68	        -201.274
     471	 2.02506	0.957472	        -4248.75	         4047.31	        -201.448
     472	 2.02965	0.943803	        -4258.02	         4056.47	        -201.547
     473	 2.03218	0.937272	        -4263.05	         4061.53	        -201.525
     474	 2.03266	0.937843	        -4263.93	         4062.49	        -201.446
     475	 2.03156	0.944034	        -4261.69	         4060.29	        -201.397
     476	 2.02928	0.954591	        -4257.11	         4055.72	         -201.39
     477	 2.02602	0.968752	        -4250.59	         4049.23	        -201.365
     478	 2.02221	0.985185	         -4242.9	         4041.62	        -201.276
     479	 2.01865	 1.00135	         -4235.7	         4034.51	        -201.192
     480	 2.01598	 1.01504	        -4230.44	         4029.17	        -201.272
     481	 2.01379	  1.0273	        -4226.28	         4024.81	        -201.477
     482	 2.01093	 1.04152	        -4220.67	          4019.1	        -201.571
     483	 2.00682	 1.05929	        -4212.38	         4010.89	        -201.487
     484	 2.00201	  1.0788	        -4202.61	         4001.29	        -201.326
     485	 1.99763	 1.09662	        -4193.72	         3992.55	        -201.172
     486	 1.99477	 1.10949	        -4187.92	         3986.84	        -201.079
     487	 1.99403	 1.11558	        -4186.44	         3985.36	        -201.071
     488	 1.99536	 1.11502	        -4189.14	         3988.02	        -201.124
     489	 1.99819	 1.10948	        -4194.88	         3993.66	        -201.218
     490	 2.00162	 1.10162	        -4201.83	         4000.51	        -201.327
     491	 2.00469	 1.09437	        -4208.04	         4006.64	        -201.396
     492	 2.00675	 1.08977	        -4212.17	         4010.76	        -201.407
     493	 2.00757	 1.08861	        -4213.79	         4012.38	        -201.409
     494	 2.00703	 1.09119	        -4212.74	          4011.3	        -201.433
     495	 2.00503	 1.09788	        -4208.74	         4007.31	         -201.43
     496	 2.00169	 1.10832	        -4202.01	         4000.65	        -201.358
     497	 1.99762	 1.12065	        -4193.78	         3992.53	        -201.251
     498	 1.99369	 1.13224	        -4185.83	         3984.68	         -201.15
     499	 1.99077	 1.14052	        -4179.92	         3978.86	        -201.061
     500	 1.98959	 1.14335	        -4177.52	          3976.5	        -201.018
     501	 1.99042	 1.13983	        -4179.27	         3978.15	        -201.117
     502	 1.99254	 1.13201	        -4183.74	         3982.37	        -201.367
     503	 1.99436	 1.12457	        -4187.58	         3986.01	        -201.578
     504	 1.99463	 1.12124	        -4188.14	         3986.56	        -201.579
     505	 1.99351	 1.12154	        -4185.71	         3984.31	        -201.405
     506	 1.99239	 1.12137	        -4183.22	         3982.08	        -201.139
     507	  1.9932	  1.1151	        -4184.66	         3983.71	        -200.956
     508	 1.99708	 1.09935	        -4192.46	         3991.44	        -201.015
     509	 2.00355	 1.07567	        -4205.53	         4004.36	        -201.169
     510	 2.01131	 1.04799	        -4221.15	         4019.86	        -201.293
     511	 2.01917	 1.01986	        -4236.91	         4035.55	        -201.361
     512	 2.02639	0.993592	        -4251.32	         4049.95	        -201.362
     513	 2.03271	0.970064	        -4263.93	         4062.59	        -201.341
     514	 2.03806	0.949615	        -4274.65	         4073.27	        -201.384
     515	 2.04202	0.933559	        -4282.66	         4081.17	         -201.49
     516	 2.04386	0.924134	        -4286.41	         4084.85	        -201.561
     517	 2.04315	0.922689	        -4284.95	         4083.42	        -201.528
     518	 2.04015	0.928379	        -4278.86	         4077.43	        -201.422
     519	 2.03573	0.938655	         -4269.9	          4068.6	        -201.293
     520	 2.03098	0.950316	        -4260.27	         4059.12	        -201.152
     521	 2.02706	 0.95997	        -4252.33	          4051.3	        -201.029
     522	 2.02488	0.964902	        -4247.95	         4046.94	        -201.014
     523	 2.02453	0.964774	        -4247.36	         4046.24	         -201.12
     524	 2.02527	0.961827	        -4248.96	         4047.72	        -201.234
     525	 2.02618	0.958764	        -4250.84	         4049.55	        -201.291
     526	 2.02667	0.957297	        -4251.84	         4050.52	         -201.32
     527	 2.02639	  0.9584	        -4251.32	         4049.97	        -201.346
     528	 2.02515	0.962713	        -4248.85	         4047.49	        -201.366
     529	 2.02283	0.970527	        -4244.24	         4042.85	        -201.386
     530	  2.0194	0.981898	        -4237.41	            4036	        -201.416
     531	 2.01486	0.996736	        -4228.37	         4026.95	        -201.419
     532	 2.00951	 1.01419	        -4217.62	         4016.27	        -201.345
     533	 2.00413	 1.03189	        -4206.73	         4005.52	        -201.217
     534	 1.99974	 1.04663	         -4197.9	         3996.76	        -201.141
     535	 1.99694	 1.05651	        -4192.37	         3991.18	        -201.191
     536	 1.99548	 1.06223	        -4189.54	         3988.25	        -201.285
     537	 1.99475	 1.06554	        -4188.09	          3986.8	        -201.292
     538	 1.99465	  1.0667	         -4187.8	          3986.6	        -201.206
     539	 1.99568	  1.0642	        -4189.77	         3988.66	        -201.114
     540	 1.99843	 1.05639	        -4195.23	         3994.14	        -201.089
     541	 2.00298	 1.04308	        -4204.41	         4003.22	        -201.184
     542	 2.00853	 1.02671	        -4215.69	          4014.3	        -201.387
     543	 2.01355	 1.01194	        -4225.88	         4024.32	        -201.554
     544	 2.01671	 1.00277	        -4232.22	         4030.64	         -201.58
     545	  2.0176	 1.00047	        -4233.92	         4032.41	        -201.512
     546	 2.01654	 1.00403	         -4231.7	          4030.3	        -201.396
     547	 2.01435	 1.01112	        -4227.18	         4025.92	        -201.252
     548	   2.012	  1.0188	        -4222.39	         4021.23	        -201.158
     549	  2.0101	 1.02515	        -4218.63	         4017.44	        -201.198
     550	 2.00838	 1.03092	        -4215.36	         4014.01	        -201.351
     551	 2.00587	 1.03898	        -4210.49	            4009	        -201.493
     552	  2.0017	 1.05188	        -4202.17	         4000.67	        -201.501
     553	 1.99592	 1.06939	         -4190.5	         3989.12	        -201.375
     554	 1.98945	 1.08856	        -4177.46	         3976.21	        -201.252
     555	 1.98329	 1.10627	        -4165.13	         3963.91	        -201.217
     556	 1.97797	 1.12093	        -4154.48	         3953.28	        -201.193
     557	 1.97392	  1.1312	         -4146.3	         3945.21	        -201.094
     558	 1.97197	 1.13458	        -4142.27	         3941.31	        -200.965
     559	 1.97302	 1.12833	        -4144.32	          3943.4	        -200.918
     560	 1.97732	 1.11172	        -4153.02	            3952	        -201.023
     561	 1.98402	 1.08734	        -4166.62	         3965.37	        -201.243
     562	 1.99143	 1.06032	         -4181.6	         3980.17	         -201.43
     563	 1.99808	  1.0352	         -4194.9	         3993.44	        -201.457
     564	 2.00355	 1.01339	         -4205.7	         4004.37	        -201.334
     565	 2.00848	 0.99323	         -4215.4	         4014.21	        -201.189
     566	 2.01368	0.972558	        -4225.75	         4024.58	        -201.164
     567	 2.01921	0.951401	        -4236.91	         4035.62	        -201.284
     568	 2.02421	0.932541	        -4247.08	         4045.61	        -201.463
     569	 2.02746	0.919804	        -4253.68	          4052.1	        -201.584
     570	 2.02816	0.915679	        -4255.07	         4053.49	        -201.574
     571	 2.02643	0.919885	        -4251.49	         4050.04	        -201.451
     572	  2.0232	0.929727	        -4244.89	          4043.6	        -201.289
     573	 2.01969	 0.94164	        -4237.77	         4036.59	        -201.172
     574	 2.01677	0.953006	        -4231.93	         4030.76	        -201.171
     575	 2.01451	0.963514	        -4227.53	         4026.25	         -201.28
     576	 2.01228	0.974963	         -4223.2	         4021.79	         -201.41
     577	 2.00931	 0.98949	        -4217.32	         4015.86	        -201.465
     578	 2.00535	 1.00767	        -4209.37	         4007.95	        -201.419
     579	 2.00083	 1.02806	        -4200.28	         3998.94	         -201.34
     580	 1.99641	 1.04855	        -4191.43	         3990.11	        -201.315
     581	 1.99238	 1.06813	        -4183.45	         3982.06	        -201.384
     582	  1.9884	 1.08758	        -4175.64	         3974.12	         -201.52
     583	 1.98383	 1.10877	        -4166.56	         3964.99	        -201.562
     584	  1.9787	 1.13154	        -4156.17	         3954.76	        -201.419
     585	 1.97406	  1.1525	        -4146.81	         3945.48	        -201.335
     586	 1.97053	 1.16948	        -4139.89	         3938.45	        -201.447
     587	 1.96763	 1.18396	        -4134.18	         3932.64	        -201.539
     588	 1.96472	 1.19758	        -4128.36	         3926.84	        -201.516
     589	 1.96181	 1.21009	        -4122.51	         3921.04	        -201.472
     590	 1.95921	 1.22056	        -4117.23	         3915.83	        -201.391
     591	 1.95752	  1.2273	         -4113.7	         3912.47	        -201.232
     592	 1.95773	 1.22743	        -4114.04	         3912.89	        -201.153
     593	 1.96019	 1.21988	        -4119.09	         3917.79	        -201.305
     594	 1.96379	 1.20799	        -4126.55	         3924.99	        -201.562
     595	 1.96681	 1.19708	        -4132.67	         3931.01	        -201.656
     596	 1.96855	 1.18928	        -4135.98	         3934.48	        -201.504
     597	 1.96995	 1.18187	        -4138.52	         3937.27	        -201.248
     598	  1.9727	 1.16998	        -4143.86	         3942.78	        -201.088
     599	  1.9778	 1.15083	         -4154.1	         3952.95	        -201.153
     600	 1.98468	 1.12626	        -4168.04	         3966.69	         -201.35
     601	 1.99181	   1.101	        -4182.44	         3980.93	        -201.507
     602	 1.99775	 1.07933	        -4194.39	         3992.78	        -201.607
     603	  2.0015	 1.06412	        -4201.96	         4000.28	        -201.683
     604	 2.00249	 1.05711	        -4203.95	         4002.25	        -201.697
     605	 2.00078	 1.05811	        -4200.42	         3998.84	        -201.582
     606	  1.9974	 1.06404	        -4193.45	         3992.08	        -201.367
     607	 1.99404	 1.06974	        -4186.54	         3985.38	        -201.154
     608	 1.99239	 1.07023	        -4183.08	         3982.09	        -200.997
     609	 1.99361	 1.06207	        -4185.43	         3984.53	        -200.908
     610	  1.9982	 1.04386	        -4194.58	         3993.67	        -200.911
     611	 2.00583	 1.01664	        -4209.93	         4008.92	        -201.013
     612	 2.01542	0.983816	        -4229.27	         4028.07	        -201.201
     613	 2.02527	0.950594	        -4249.15	         4047.72	        -201.422
     614	 2.03353	0.922654	        -4265.79	         4064.21	        -201.581
     615	 2.03889	0.904083	        -4276.52	         4074.92	        -201.599
     616	 2.04107	0.895891	        -4280.78	         4079.28	        -201.507
     617	 2.04061	0.896559	        -4279.76	         4078.35	        -201.409
     618	 2.03819	0.904063	        -4274.89	         4073.52	        -201.375
     619	 2.03417	 0.91728	         -4266.9	          4065.5	        -201.401
     620	 2.02859	0.935966	        -4255.78	         4054.35	        -201.435
     621	 2.02151	0.959726	        -4241.63	         4040.22	        -201.411
     622	 2.01347	  0.9868	        -4225.46	         4024.16	        -201.302
     623	 2.00556	 1.01374	        -4209.53	         4008.37	        -201.163
     624	 1.99899	 1.03675	        -4196.38	         3995.26	        -201.118
     625	 1.99426	 1.05413	        -4187.04	         3985.82	        -201.219
     626	 1.99091	 1.06723	        -4180.46	         3979.12	        -201.344
     627	 1.98817	 1.07816	        -4175.07	         3973.65	        -201.413
     628	 1.98557	 1.08815	        -4169.95	         3968.47	        -201.478
     629	  1.9828	 1.09808	        -4164.48	         3962.94	         -201.54
     630	 1.97977	 1.10831	        -4158.39	         3956.89	        -201.495
     631	 1.97709	 1.11717	        -4152.89	         3951.53	        -201.362
     632	 1.97582	 1.12151	        -4150.26	         3948.99	        -201.268
     633	 1.97669	 1.11936	        -4152.02	         3950.74	        -201.279
     634	 1.97939	 1.11159	        -4157.63	         3956.13	          -201.5
     635	 1.98214	 1.10348	        -4163.43	         3961.62	        -201.804
     636	 1.98276	 1.10173	        -4164.71	         3962.85	        -201.863
     637	 1.98051	 1.10842	        -4160.06	         3958.36	        -201.696
     638	 1.97629	 1.12084	        -4151.46	         3949.94	        -201.513
     639	 1.97137	 1.13528	        -4141.53	         3940.11	        -201.415
     640	 1.96655	 1.14931	        -4131.89	         3930.49	        -201.394
     641	 1.96214	 1.16196	        -4123.09	          3921.7	        -201.397
     642	 1.95824	 1.17276	         -4115.3	         3913.91	         -201.39
     643	 1.95498	 1.18115	        -4108.76	          3907.4	        -201.362
     644	  1.9527	 1.18602	         -4104.1	         3902.84	         -201.26
     645	 1.95222	 1.18493	        -4102.95	         3901.88	        -201.075
     646	 1.95475	 1.17425	        -4107.87	         3906.93	        -200.941
     647	 1.96099	 1.15188	         -4120.4	          3919.4	        -201.008
     648	 1.97023	    1.12	        -4139.08	         3937.85	         -201.23
     649	 1.98067	 1.08416	        -4160.09	         3958.67	        -201.419
     650	 1.99061	 1.04954	           -4180	         3978.53	        -201.467
     651	  1.9993	  1.0186	        -4197.31	         3995.88	        -201.425
     652	 2.00667	0.991781	        -4211.98	         4010.58	        -201.392
     653	 2.01271	0.969294	        -4224.05	         4022.64	        -201.404
     654	 2.01724	0.951897	        -4233.12	          4031.7	        -201.422
     655	 2.02012	0.940209	        -4238.84	         4037.45	        -201.389
     656	 2.02153	0.933767	        -4241.57	         4040.25	        -201.318
     657	 2.02188	0.931289	        -4242.24	         4040.97	        -201.273
     658	  2.0215	0.931849	        -4241.48	          4040.2	         -201.28
     659	 2.02037	0.935438	        -4239.25	         4037.94	        -201.308
     660	 2.01832	0.942445	        -4235.17	         4033.85	        -201.326
     661	 2.01527	0.952994	        -4229.08	         4027.76	        -201.322
     662	 2.01131	0.966668	        -4221.15	         4019.85	        -201.295
     663	 2.00676	0.982417	        -4212.02	         4010.77	        -201.247
     664	 2.00212	 0.99865	        -4202.68	          4001.5	        -201.187
     665	 1.99799	 1.01348	        -4194.39	         3993.26	        -201.131
     666	  1.9949	 1.02524	        -4188.24	          3987.1	        -201.134
     667	 1.99292	 1.03363	        -4184.37	         3983.14	        -201.226
     668	 1.99152	 1.04014	        -4181.67	         3980.35	        -201.315
     669	 1.99018	 1.04632	        -4178.99	         3977.68	        -201.309
     670	 1.98893	 1.05203	        -4176.42	         3975.18	        -201.235
     671	 1.98825	 1.05587	           -4175	         3973.81	        -201.186
     672	 1.98846	 1.05685	        -4175.46	         3974.23	        -201.223
     673	 1.98934	 1.05572	        -4177.32	         3975.98	        -201.335
     674	 1.99017	  1.0546	        -4179.08	         3977.64	        -201.436
     675	  1.9903	 1.05541	        -4179.37	         3977.91	        -201.457
     676	 1.98958	 1.05855	        -4177.91	         3976.48	        -201.429
     677	 1.98821	 1.06336	        -4175.14	         3973.73	        -201.414
     678	 1.98637	 1.06919	        -4171.47	         3970.07	        -201.402
     679	 1.98434	 1.07532	        -4167.36	         3966.01	        -201.348
     680	 1.98265	 1.08015	        -4163.87	         3962.63	        -201.245
     681	 1.98213	  1.0812	        -4162.74	          3961.6	        -201.132
     682	 1.98369	 1.07593	        -4165.76	         3964.72	         -201.04
     683	 1.98798	  1.0626	        -4174.28	         3973.27	        -201.001
     684	   1.995	 1.04126	        -4188.42	          3987.3	        -201.122
     685	 2.00351	 1.01574	        -4205.71	         4004.29	        -201.415
     686	 2.01113	0.993427	        -4221.15	         4019.49	        -201.659
     687	 2.01572	0.980809	        -4230.37	         4028.65	         -201.72
     688	 2.01646	0.980424	        -4231.77	         4030.13	        -201.641
     689	 2.01373	0.991204	        -4226.18	         4024.69	        -201.491
     690	 2.00862	 1.00997	        -4215.84	         4014.48	        -201.363
     691	 2.00216	 1.03347	        -4202.92	         4001.59	        -201.328
     692	 1.99493	 1.05986	         -4188.5	         3987.15	        -201.344
     693	 1.98717	 1.08815	           -4173	         3971.65	        -201.353
     694	 1.97913	 1.11722	        -4156.96	         3955.62	        -201.344
     695	 1.97128	 1.14546	        -4141.23	         3939.94	        -201.294
     696	 1.96435	  1.1705	        -4127.29	          3926.1	        -201.186
     697	 1.95938	 1.18907	        -4117.27	         3916.18	        -201.092
     698	 1.95716	 1.19861	        -4112.87	         3911.74	        -201.135
     699	 1.95748	 1.19962	        -4113.67	         3912.38	        -201.297
     700	 1.95931	 1.19517	        -4117.47	         3916.05	        -201.423
     701	 1.96172	 1.18807	         -4122.3	         3920.85	        -201.456
     702	 1.96432	 1.17947	        -4127.46	         3926.03	        -201.426
     703	 1.96723	 1.16918	         -4133.2	         3931.84	        -201.363
     704	 1.97078	 1.15638	        -4140.26	         3938.93	        -201.321
     705	 1.97514	 1.14077	        -4149.01	         3947.64	        -201.363
     706	 1.97995	 1.12361	        -4158.71	         3957.25	        -201.463
     707	 1.98449	 1.10733	        -4167.85	         3966.31	        -201.533
     708	 1.98818	 1.09387	        -4175.25	         3973.69	        -201.566
     709	  1.9906	 1.08459	        -4180.17	         3978.51	        -201.653
     710	 1.99107	 1.08166	        -4181.22	         3979.44	        -201.774
     711	  1.9888	 1.08749	        -4176.72	         3974.91	        -201.802
     712	 1.98372	 1.10234	        -4166.45	         3964.77	        -201.676
     713	 1.97687	   1.123	        -4152.55	          3951.1	         -201.45
     714	    1.97	 1.14411	        -4138.66	         3937.38	        -201.278
     715	 1.96451	 1.16126	        -4127.68	         3926.42	        -201.267
     716	 1.96078	 1.17319	        -4120.31	         3918.97	        -201.342
     717	 1.95853	 1.18059	        -4115.86	         3914.49	        -201.375
     718	 1.95765	 1.18371	        -4114.04	         3912.73	        -201.315
     719	 1.95856	 1.18131	        -4115.72	         3914.54	        -201.179
     720	 1.96201	 1.17119	        -4122.55	         3921.44	        -201.116
     721	 1.96812	 1.15307	        -4134.89	         3933.63	         -201.26
     722	 1.97565	 1.13082	        -4150.18	         3948.66	        -201.514
     723	 1.98261	 1.11054	        -4164.25	         3962.55	        -201.702
     724	 1.98739	 1.09704	        -4173.87	         3972.09	        -201.777
     725	 1.98929	 1.09249	        -4177.65	         3975.89	        -201.766
     726	 1.98841	 1.09669	        -4175.82	         3974.13	         -201.69
     727	 1.98542	 1.10766	        -4169.78	         3968.16	        -201.615
     728	   1.981	  1.1232	        -4160.97	         3959.34	        -201.636
     729	 1.97536	 1.14257	        -4149.72	         3948.07	        -201.644
     730	 1.96886	 1.16464	        -4136.57	          3935.1	        -201.472
     731	 1.96286	 1.18512	        -4124.34	         3923.12	        -201.218
     732	 1.95915	 1.19842	        -4116.83	         3915.71	        -201.113
     733	 1.95847	 1.20211	        -4115.62	         3914.35	        -201.261
     734	 1.95985	 1.19892	        -4118.64	         3917.12	        -201.519
     735	 1.96158	 1.19391	         -4122.2	         3920.57	        -201.637
     736	 1.96282	 1.18956	        -4124.54	         3923.04	        -201.497
     737	 1.96434	 1.18358	        -4127.35	         3926.09	        -201.261
     738	 1.96751	 1.17203	        -4133.59	         3932.41	        -201.183
     739	 1.97269	 1.15403	        -4144.03	         3942.76	        -201.278
     740	 1.97909	 1.13227	        -4156.93	         3955.53	        -201.402
     741	 1.98558	 1.11025	        -4169.96	         3968.49	        -201.471
     742	 1.99145	  1.0903	        -4181.66	          3980.2	        -201.463
     743	 1.99656	   1.073	         -4191.8	          3990.4	        -201.399
     744	  2.0012	 1.05766	        -4201.04	         3999.68	        -201.362
     745	 2.00554	 1.04395	        -4209.73	         4008.33	        -201.404
     746	 2.00926	 1.03292	        -4217.24	         4015.77	        -201.469
     747	  2.0119	 1.02607	        -4222.56	         4021.04	        -201.517
     748	 2.01302	 1.02461	        -4224.85	         4023.27	        -201.577
     749	 2.01217	 1.02978	        -4223.21	         4021.57	        -201.641
     750	 2.00896	 1.04259	        -4216.82	         4015.16	        -201.664
     751	 2.00335	 1.06297	        -4205.59	         4003.96	        -201.628
     752	 1.99583	  1.0893	        -4190.47	         3988.95	        -201.515
     753	  1.9875	 1.11822	        -4173.65	         3972.33	        -201.321
     754	 1.97997	 1.14485	        -4158.43	         3957.28	        -201.152
     755	 1.97454	 1.16508	        -4147.59	         3946.44	        -201.146
     756	 1.97146	 1.17815	        -4141.54	         3940.29	        -201.243
     757	 1.97021	 1.18561	        -4139.09	         3937.79	        -201.296
     758	 1.97032	 1.18873	        -4139.35	         3938.02	        -201.326
     759	 1.97139	 1.18862	        -4141.57	         3940.15	        -201.415
     760	  1.9727	 1.18742	        -4144.27	         3942.78	        -201.498
     761	 1.97361	 1.18714	        -4146.08	         3944.59	        -201.487
     762	 1.97404	 1.18797	        -4146.86	         3945.44	        -201.427
     763	 1.97426	 1.18901	        -4147.29	         3945.89	        -201.404
     764	 1.97444	  1.1898	        -4147.66	         3946.24	        -201.424
     765	 1.97448	 1.19061	        -4147.77	         3946.32	        -201.451
     766	  1.9742	 1.19189	        -4147.26	         3945.76	          -201.5
     767	 1.97327	 1.19454	        -4145.48	         3943.91	        -201.571
     768	 1.97133	 1.19967	        -4141.61	         3940.03	        -201.571
     769	 1.96853	 1.20689	        -4135.86	         3934.44	        -201.418
     770	 1.96599	 1.21288	        -4130.55	         3929.38	        -201.174
     771	 1.96538	 1.21271	        -4129.16	         3928.15	        -201.016
     772	 1.96771	 1.20331	        -4133.85	         3932.81	        -201.041
     773	 1.97279	 1.18535	        -4144.12	         3942.94	        -201.172
     774	 1.97955	 1.16198	        -4157.77	         3956.45	        -201.314
     775	 1.98675	  1.1369	        -4172.27	         3970.82	        -201.443
     776	 1.99323	 1.11362	        -4185.29	         3983.76	        -201.536
     777	 1.99816	 1.09476	        -4195.16	         3993.61	        -201.551
     778	 2.00132	 1.08124	        -4201.39	         3999.91	        -201.488
     779	 2.00304	 1.07224	        -4204.73	         4003.34	        -201.392
     780	 2.00395	 1.06603	        -4206.48	         4005.17	        -201.313
     781	 2.00463	 1.06108	         -4207.8	         4006.51	        -201.285
     782	  2.0053	  1.0567	        -4209.17	         4007.86	        -201.303
     783	 2.00592	 1.05308	        -4210.45	          4009.1	         -201.35
     784	  2.0062	 1.05097	        -4211.09	         4009.66	        -201.427
     785	 2.00571	 1.05159	        -4210.18	         4008.67	        -201.508
     786	 2.00408	 1.05599	        -4206.93	         4005.42	        -201.512
     787	 2.00149	 1.06364	        -4201.67	         4000.24	        -201.426
     788	 1.99869	 1.07225	        -4195.99	         3994.66	        -201.334
     789	 1.99649	 1.07945	        -4191.57	         3990.27	          -201.3
     790	 1.99524	 1.08419	        -4189.13	         3987.78	        -201.349
     791	 1.99463	 1.08736	        -4188.03	         3986.55	         -201.48
     792	 1.99378	 1.09151	        -4186.43	         3984.85	        -201.577
     793	 1.99201	 1.09864	        -4182.87	         3981.33	        -201.546
     794	  1.9894	 1.10839	        -4177.58	         3976.12	        -201.465
     795	 1.98636	 1.11936	        -4171.49	         3970.05	        -201.443
     796	 1.98303	 1.13111	        -4164.82	         3963.39	        -201.432
     797	 1.97947	 1.14337	        -4157.63	         3956.28	        -201.351
     798	 1.97613	  1.1547	        -4150.87	         3949.62	        -201.245
     799	 1.97363	 1.16312	        -4145.83	         3944.64	        -201.199
     800	 1.97227	 1.16777	        -4143.13	          3941.9	        -201.228
     801	 1.97189	 1.16909	        -4142.42	         3941.15	        -201.274
     802	 1.97223	 1.16793	        -4143.14	         3941.83	        -201.303
     803	 1.97311	 1.16489	        -4144.92	         3943.58	        -201.344
     804	 1.97425	  1.1608	        -4147.26	         3945.86	          -201.4
     805	 1.97533	  1.1568	        -4149.44	         3948.01	        -201.426
     806	 1.97615	  1.1535	        -4151.09	         3949.65	        -201.432
     807	 1.97667	  1.1511	        -4152.13	         3950.69	        -201.439
     808	 1.97688	 1.14967	        -4152.55	         3951.12	        -201.431
     809	 1.97691	 1.14892	        -4152.57	         3951.17	          -201.4
     810	 1.97703	 1.14803	        -4152.77	         3951.42	        -201.348
     811	 1.97767	 1.14579	           -4154	         3952.69	        -201.313
     812	 1.97904	 1.14142	        -4156.77	         3955.42	        -201.349
     813	 1.98091	 1.13558	        -4160.58	         3959.16	        -201.421
     814	  1.9828	 1.12967	        -4164.39	         3962.94	        -201.448
     815	 1.98446	 1.12438	        -4167.67	         3966.25	        -201.413
     816	   1.986	 1.11933	         -4170.7	         3969.33	        -201.368
     817	 1.98758	   1.114	        -4173.87	         3972.48	        -201.386
     818	   1.989	 1.10895	        -4176.76	         3975.31	        -201.442
     819	  1.9899	 1.10529	        -4178.54	         3977.11	        -201.425
     820	 1.99041	 1.10266	        -4179.45	         3978.13	        -201.324
     821	 1.99113	 1.09912	        -4180.84	         3979.57	        -201.267
     822	 1.99246	 1.09349	         -4183.5	         3982.22	         -201.28
     823	 1.99435	 1.08593	        -4187.26	         3985.99	        -201.269
     824	 1.99679	 1.07645	         -4192.1	         3990.87	        -201.235
     825	 1.99988	 1.06475	        -4198.24	         3997.03	        -201.216
     826	  2.0036	 1.05092	        -4205.68	         4004.47	        -201.216
     827	  2.0078	 1.03557	        -4214.09	         4012.85	        -201.242
     828	 2.01207	 1.01998	        -4222.68	         4021.37	        -201.312
     829	 2.01575	  1.0062	        -4230.14	         4028.73	        -201.407
     830	 2.01814	0.996531	        -4234.94	         4033.49	         -201.45
     831	 2.01899	0.991901	        -4236.55	         4035.19	        -201.364
     832	 2.01887	0.990731	        -4236.22	         4034.95	        -201.273
     833	 2.01826	0.991469	        -4235.12	         4033.74	        -201.382
     834	 2.01659	 0.99599	         -4231.9	         4030.39	        -201.511
     835	 2.01311	 1.00652	        -4224.89	         4023.44	        -201.449
     836	 2.00823	 1.02166	        -4214.99	         4013.71	        -201.277
     837	 2.00322	  1.0376	        -4204.84	          4003.7	        -201.141
     838	 1.99921	 1.05093	        -4196.79	         3995.69	        -201.098
     839	 1.99673	 1.05999	        -4191.89	         3990.75	        -201.135
     840	 1.99572	 1.06491	        -4189.97	         3988.73	        -201.238
     841	 1.99566	  1.0671	        -4189.95	          3988.6	        -201.352
     842	 1.99617	 1.06778	        -4190.93	         3989.64	        -201.296
     843	 1.99794	 1.06506	        -4194.34	         3993.17	        -201.171
     844	 2.00141	 1.05702	        -4201.63	         4000.09	        -201.542
     845	 2.00431	 1.05066	        -4207.83	         4005.88	        -201.948
     846	 2.00405	 1.05397	         -4207.2	         4005.36	        -201.835
     847	 2.00108	 1.06539	        -4200.86	         3999.44	        -201.426
     848	 1.99803	 1.07712	        -4194.48	         3993.34	        -201.137
     849	 1.99681	 1.08354	        -4192.12	          3990.9	        -201.223
     850	 1.99694	 1.08624	        -4192.68	         3991.17	        -201.507
     851	 1.99654	 1.09101	        -4192.04	         3990.36	         -201.68
     852	  1.9942	 1.10184	        -4187.37	          3985.7	         -201.67
     853	 1.98983	 1.11893	        -4178.51	         3976.98	        -201.539
     854	 1.98428	 1.13968	        -4167.25	         3965.89	        -201.364
     855	 1.97878	 1.16034	        -4156.13	         3954.91	        -201.217
     856	 1.97439	 1.17769	         -4147.3	         3946.14	        -201.158
     857	 1.97153	 1.19031	        -4141.63	         3940.44	        -201.195
     858	 1.97001	 1.19867	        -4138.67	          3937.4	        -201.262
     859	 1.96943	 1.20391	         -4137.5	         3936.24	        -201.269
     860	 1.96974	 1.20607	        -4138.07	         3936.86	        -201.211
     861	 1.97127	 1.20411	        -4141.12	         3939.92	        -201.204
     862	 1.97399	 1.19803	        -4146.68	         3945.36	        -201.325
     863	 1.97712	 1.19023	        -4153.08	          3951.6	        -201.479
     864	 1.97962	 1.18382	        -4158.15	         3956.59	        -201.559
     865	 1.98091	 1.18055	        -4160.72	         3959.17	        -201.559
     866	 1.98095	 1.18056	        -4160.79	         3959.24	        -201.554
     867	 1.97977	 1.18367	        -4158.49	         3956.89	        -201.598
     868	 1.97727	  1.1903	         -4153.5	          3951.9	        -201.599
     869	 1.97372	 1.19973	        -4146.24	         3944.81	        -201.435
     870	 1.97043	 1.20812	        -4139.39	         3938.24	        -201.153
     871	 1.96938	 1.20961	        -4137.09	         3936.15	        -200.941
     872	 1.97189	 1.20022	        -4142.16	         3941.16	        -201.001
     873	 1.97735	 1.18168	        -4153.36	         3952.05	        -201.318
     874	  1.9835	 1.16075	        -4165.89	         3964.33	        -201.557
     875	 1.98851	 1.14291	        -4175.85	         3974.33	        -201.521
     876	 1.99227	 1.12837	        -4183.15	         3981.83	        -201.319
     877	 1.99588	 1.11388	        -4190.21	         3989.05	        -201.152
     878	 2.00036	 1.09663	         -4199.1	         3997.99	        -201.105
     879	 2.00591	  1.0762	        -4210.24	         4009.08	        -201.158
     880	 2.01197	 1.05444	        -4222.46	         4021.17	        -201.296
     881	 2.01736	 1.03497	        -4233.39	         4031.92	        -201.462
     882	 2.02075	 1.02189	        -4240.27	          4038.7	        -201.569
     883	 2.02127	 1.01788	        -4241.32	         4039.74	        -201.577
     884	 2.01879	 1.02333	        -4236.31	         4034.79	        -201.521
     885	 2.01375	 1.03687	        -4226.17	         4024.73	        -201.439
     886	 2.00698	 1.05601	        -4212.52	         4011.21	         -201.31
     887	 1.99974	 1.07695	        -4197.87	         3996.76	        -201.107
     888	 1.99378	 1.09447	        -4185.78	         3984.87	        -200.914
     889	  1.9906	 1.10394	        -4179.44	         3978.51	        -200.925
     890	 1.99022	 1.10513	        -4178.94	         3977.75	        -201.191
     891	 1.99099	 1.10296	        -4180.75	         3979.29	        -201.461
     892	 1.99111	 1.10275	        -4181.03	         3979.53	        -201.501
     893	 1.99023	 1.10552	        -4179.08	         3977.76	         -201.32
     894	 1.98944	 1.10798	        -4177.29	         3976.18	         -201.11
     895	 1.99008	 1.10612	        -4178.53	         3977.47	        -201.055
     896	 1.99253	 1.09894	        -4183.53	         3982.37	        -201.162
     897	 1.99605	 1.08874	         -4190.7	         3989.39	        -201.317
     898	 1.99945	 1.07898	        -4197.63	         3996.18	        -201.454
     899	 2.00168	 1.07282	        -4202.17	         4000.62	         -201.55
     900	 2.00203	 1.07232	         -4202.9	         4001.33	        -201.568
     901	 2.00042	 1.07781	        -4199.61	         3998.11	        -201.503
     902	 1.99734	 1.08774	        -4193.38	         3991.96	        -201.423
     903	 1.99346	 1.10005	         -4185.6	         3984.22	        -201.378
     904	  1.9893	 1.11313	        -4177.26	         3975.91	        -201.359
     905	 1.98513	 1.12589	        -4168.95	          3967.6	         -201.36
     906	 1.98114	 1.13759	        -4160.97	         3959.63	        -201.345
     907	 1.97764	 1.14713	        -4153.87	         3952.63	        -201.245
     908	 1.97542	 1.15194	        -4149.29	          3948.2	        -201.084
     909	  1.9756	 1.14856	        -4149.55	         3948.56	        -200.987
     910	  1.9788	 1.13505	        -4155.98	         3954.96	        -201.025
     911	 1.98473	 1.11242	        -4167.93	         3966.79	        -201.133
     912	 1.99248	 1.08351	         -4183.5	         3982.26	        -201.248
     913	 2.00096	 1.05173	        -4200.54	         3999.19	        -201.348
     914	 2.00917	 1.02038	           -4217	         4015.59	        -201.415
     915	 2.01629	0.992168	        -4231.28	          4029.8	        -201.475
     916	 2.02167	0.969366	        -4242.02	         4040.54	        -201.484
     917	 2.02511	0.952872	        -4248.81	         4047.41	        -201.403
     918	 2.02705	0.941588	        -4252.58	         4051.28	        -201.291
     919	 2.02824	0.933512	        -4254.87	         4053.65	        -201.215
     920	 2.02922	0.927148	        -4256.83	         4055.61	        -201.215
     921	 2.03003	0.922454	        -4258.53	         4057.22	        -201.306
     922	 2.03011	0.921037	        -4258.82	          4057.4	        -201.421
     923	 2.02884	0.924801	        -4256.31	         4054.86	        -201.455
     924	  2.0261	0.933973	        -4250.79	         4049.38	        -201.404
     925	 2.02232	 0.94707	        -4243.22	         4041.83	        -201.388
     926	 2.01779	0.962994	        -4234.25	         4032.79	        -201.459
     927	 2.01237	0.982018	        -4223.49	         4021.97	        -201.517
     928	 2.00605	   1.004	         -4210.8	         4009.36	         -201.44
     929	 1.99963	 1.02637	        -4197.83	         3996.54	        -201.291
     930	 1.99422	 1.04546	        -4187.01	         3985.74	        -201.277
     931	 1.99012	 1.06015	        -4178.95	         3977.54	        -201.405
     932	 1.98689	 1.07183	        -4172.49	         3971.11	        -201.383
     933	 1.98505	  1.0792	        -4168.53	         3967.43	        -201.094
     934	 1.98617	 1.07722	        -4170.74	         3969.65	        -201.086
     935	 1.98997	 1.06665	         -4178.7	         3977.25	         -201.45
     936	 1.99399	 1.05538	        -4186.88	         3985.29	        -201.593
     937	  1.9967	 1.04796	        -4192.15	         3990.69	        -201.459
     938	 1.99848	 1.04322	        -4195.49	         3994.23	         -201.26
     939	 2.00044	 1.03796	        -4199.29	         3998.15	        -201.134
     940	 2.00334	 1.03008	         -4205.1	         4003.94	        -201.159
     941	 2.00693	  1.0203	        -4212.44	         4011.11	         -201.33
     942	 2.01004	  1.0121	        -4218.86	         4017.32	        -201.538
     943	 2.01124	 1.00964	        -4221.38	         4019.71	        -201.673
     944	 2.00964	 1.01542	         -4218.2	         4016.52	        -201.674
     945	 2.00541	  1.0289	         -4209.6	         4008.07	        -201.527
     946	 1.99978	 1.04636	        -4198.13	         3996.83	        -201.295
     947	 1.99458	 1.06232	        -4187.55	         3986.45	        -201.102
     948	 1.99132	 1.07224	           -4181	         3979.95	        -201.044
     949	 1.99053	  1.0746	         -4179.5	         3978.36	        -201.134
     950	 1.99156	 1.07126	        -4181.72	         3980.42	        -201.299
     951	 1.99318	 1.06593	        -4185.07	         3983.65	        -201.418
     952	 1.99436	 1.06166	        -4187.44	         3986.01	        -201.439
     953	  1.9947	  1.0596	        -4188.09	         3986.69	        -201.398
     954	 1.99432	 1.05938	        -4187.29	         3985.94	        -201.347
     955	 1.99357	    1.06	        -4185.72	         3984.44	        -201.286
     956	 1.99296	 1.05994	        -4184.42	         3983.22	        -201.195
     957	 1.99323	   1.057	        -4184.87	         3983.75	        -201.119
     958	 1.99493	  1.0494	         -4188.3	         3987.16	        -201.143
     959	 1.99803	 1.03733	        -4194.57	         3993.34	        -201.229
     960	 2.00203	 1.02237	         -4202.6	         4001.33	        -201.278
     961	 2.00657	 1.00567	        -4211.69	          4010.4	        -201.291
     962	 2.01147	0.987962	        -4221.51	         4020.17	        -201.341
     963	 2.01625	0.970776	        -4231.19	         4029.73	        -201.462
     964	 2.02001	0.957031	        -4238.85	         4037.23	        -201.625
     965	 2.02156	0.950339	        -4242.08	         4040.32	         -201.76
     966	 2.02003	0.953376	        -4239.04	         4037.26	        -201.781
     967	 2.01545	0.966051	        -4229.76	         4028.13	        -201.632
     968	 2.00922	0.984363	           -4217	         4015.68	        -201.317
     969	 2.00382	 1.00097	        -4205.89	          4004.9	        -200.989
     970	 2.00162	 1.00877	        -4201.42	         4000.52	        -200.901
     971	 2.00319	   1.006	        -4204.79	         4003.64	        -201.155
     972	 2.00669	0.998081	        -4212.14	         4010.63	        -201.507
     973	 2.00955	0.992718	        -4217.98	         4016.35	        -201.638
     974	  2.0105	0.993625	        -4219.76	         4018.23	        -201.531
     975	  2.0099	0.999605	         -4218.4	         4017.04	        -201.361
     976	 2.00875	 1.00772	        -4216.01	         4014.74	        -201.269
     977	 2.00765	 1.01616	        -4213.84	         4012.55	        -201.282
     978	 2.00659	 1.02493	        -4211.76	         4010.43	        -201.326
     979	 2.00537	 1.03449	        -4209.29	            4008	        -201.293
     980	  2.0043	 1.04387	        -4207.03	         4005.86	        -201.172
     981	 2.00419	 1.05051	        -4206.71	         4005.64	        -201.063
     982	 2.00574	 1.05227	        -4209.82	         4008.73	         -201.09
     983	 2.00866	 1.04984	        -4215.84	         4014.56	        -201.282
     984	 2.01158	 1.04725	        -4221.93	          4020.4	        -201.532
     985	 2.01275	 1.04963	        -4224.42	         4022.72	        -201.696
     986	 2.01097	  1.0603	        -4220.89	         4019.18	        -201.707
     987	 2.00625	 1.07916	        -4211.33	         4009.76	        -201.568
     988	 1.99974	 1.10268	        -4198.07	         3996.75	        -201.325
     989	 1.99339	 1.12498	        -4185.15	         3984.09	        -201.061
     990	 1.98929	 1.13986	         -4176.8	         3975.89	         -200.91
     991	 1.98862	 1.14372	        -4175.51	         3974.55	        -200.964
     992	 1.99113	 1.13734	        -4180.72	         3979.57	        -201.151
     993	 1.99556	  1.1246	        -4189.73	         3988.41	        -201.314
     994	 2.00061	 1.10942	        -4199.88	          3998.5	        -201.389
     995	 2.00548	 1.09427	        -4209.61	         4008.21	        -201.406
     996	 2.00974	  1.0805	        -4218.13	         4016.72	        -201.408
     997	 2.01315	 1.06903	        -4224.94	         4023.53	         -201.41
     998	 2.01549	 1.06059	        -4229.61	          4028.2	        -201.415
     999	 2.01657	 1.05581	        -4231.78	         4030.36	        -201.421
